Sm-144(n,g) ENDFB-8.0
Energy(eV) XS(b)
1.00000E-05 82.0352
1.03125E-05 80.7827
1.06250E-05 79.5858
1.09375E-05 78.4407
1.12500E-05 77.3435
1.15625E-05 76.2912
1.18750E-05 75.2807
1.21875E-05 74.3093
1.25000E-05 73.3745
1.28125E-05 72.4742
1.31250E-05 71.6062
1.34375E-05 70.7687
1.37500E-05 69.9598
1.43750E-05 68.4221
1.50000E-05 66.9815
1.56250E-05 65.6282
1.62500E-05 64.3537
1.68750E-05 63.1507
1.75000E-05 62.0128
1.81250E-05 60.9342
1.87500E-05 59.9100
1.93750E-05 58.9358
2.00000E-05 58.0076
2.09375E-05 56.6941
2.18750E-05 55.4659
2.28125E-05 54.3142
2.37500E-05 53.2315
2.46875E-05 52.2109
2.56250E-05 51.2470
2.65625E-05 50.3345
2.75000E-05 49.4691
2.84375E-05 48.6468
2.93750E-05 47.8642
3.03125E-05 47.1183
3.12500E-05 46.4061
3.21875E-05 45.7253
3.31250E-05 45.0736
3.40625E-05 44.4490
3.50000E-05 43.8496
3.59375E-05 43.2739
3.68750E-05 42.7203
3.78125E-05 42.1874
3.87500E-05 41.6739
3.96875E-05 41.1787
4.06250E-05 40.7008
4.25000E-05 39.7929
4.43750E-05 38.9431
4.62500E-05 38.1456
4.81250E-05 37.3951
5.00000E-05 36.6872
5.15625E-05 36.1271
5.31250E-05 35.5918
5.46875E-05 35.0797
5.62500E-05 34.5890
5.78125E-05 34.1184
5.93750E-05 33.6665
6.09375E-05 33.2321
6.25000E-05 32.8140
6.40625E-05 32.4114
6.56250E-05 32.0232
6.71875E-05 31.6487
6.87500E-05 31.2870
7.18750E-05 30.5992
7.50000E-05 29.9550
7.81250E-05 29.3498
8.12500E-05 28.7798
8.43750E-05 28.2418
8.75000E-05 27.7329
9.06250E-05 27.2506
9.37500E-05 26.7925
9.68750E-05 26.3569
0.000100000 25.9418
0.000103125 25.5457
0.000106250 25.1672
0.000109375 24.8051
0.000112500 24.4581
0.000115625 24.1253
0.000118750 23.8058
0.000121875 23.4986
0.000125000 23.2030
0.000128125 22.9183
0.000131250 22.6438
0.000134375 22.3790
0.000137500 22.1232
0.000143750 21.6369
0.000150000 21.1813
0.000156250 20.7534
0.000162500 20.3504
0.000168750 19.9699
0.000175000 19.6101
0.000181250 19.2690
0.000187500 18.9451
0.000193750 18.6371
0.000200000 18.3435
0.000209375 17.9282
0.000218750 17.5398
0.000228125 17.1756
0.000237500 16.8332
0.000246875 16.5105
0.000256250 16.2056
0.000265625 15.9171
0.000275000 15.6434
0.000284375 15.3834
0.000293750 15.1359
0.000303125 14.9000
0.000312500 14.6748
0.000321875 14.4595
0.000331250 14.2534
0.000340625 14.0559
0.000350000 13.8664
0.000359375 13.6843
0.000368750 13.5092
0.000378125 13.3407
0.000387500 13.1783
0.000396875 13.0218
0.000406250 12.8706
0.000425000 12.5835
0.000443750 12.3148
0.000462500 12.0626
0.000481250 11.8253
0.000500000 11.6014
0.000515625 11.4243
0.000531250 11.2550
0.000546875 11.0931
0.000562500 10.9379
0.000578125 10.7891
0.000593750 10.6462
0.000609375 10.5088
0.000625000 10.3766
0.000640625 10.2493
0.000656250 10.1265
0.000671875 10.0081
0.000687500 9.89368
0.000718750 9.67620
0.000750000 9.47247
0.000781250 9.28108
0.000812500 9.10085
0.000843750 8.93072
0.000875000 8.76979
0.000906250 8.61726
0.000937500 8.47241
0.000968750 8.33464
0.00100000 8.20337
0.00103125 8.07812
0.00106250 7.95844
0.00109375 7.84392
0.00112500 7.73421
0.00115625 7.62897
0.00118750 7.52792
0.00121875 7.43078
0.00125000 7.33730
0.00128125 7.24727
0.00131250 7.16047
0.00134375 7.07671
0.00137500 6.99583
0.00143750 6.84205
0.00150000 6.69799
0.00156250 6.56266
0.00162500 6.43521
0.00168750 6.31490
0.00175000 6.20111
0.00181250 6.09325
0.00187500 5.99082
0.00193750 5.89340
0.00200000 5.80057
0.00209375 5.66921
0.00218750 5.54638
0.00228125 5.43121
0.00237500 5.32292
0.00246875 5.22086
0.00256250 5.12446
0.00265625 5.03320
0.00275000 4.94665
0.00284375 4.86442
0.00293750 4.78615
0.00303125 4.71155
0.00312500 4.64033
0.00321875 4.57224
0.00331250 4.50706
0.00340625 4.44460
0.00350000 4.38466
0.00359375 4.32708
0.00368750 4.27171
0.00378125 4.21842
0.00387500 4.16707
0.00396875 4.11755
0.00406250 4.06975
0.00425000 3.97895
0.00443750 3.89397
0.00462500 3.81420
0.00481250 3.73915
0.00500000 3.66835
0.00515625 3.61234
0.00531250 3.55881
0.00546875 3.50759
0.00562500 3.45852
0.00578125 3.41145
0.00593750 3.36626
0.00609375 3.32281
0.00625000 3.28100
0.00640625 3.24074
0.00656250 3.20192
0.00671875 3.16446
0.00687500 3.12828
0.00718750 3.05951
0.00750000 2.99507
0.00781250 2.93454
0.00812500 2.87753
0.00843750 2.82372
0.00875000 2.77282
0.00906250 2.72457
0.00937500 2.67876
0.00968750 2.63518
0.0100000 2.59365
0.0103125 2.55404
0.0106250 2.51618
0.0109375 2.47996
0.0112500 2.44525
0.0115625 2.41197
0.0118750 2.38001
0.0121875 2.34929
0.0125000 2.31973
0.0128125 2.29125
0.0131250 2.26380
0.0134375 2.23732
0.0137500 2.21174
0.0143750 2.16310
0.0150000 2.11754
0.0156250 2.07473
0.0162500 2.03442
0.0168750 1.99636
0.0175000 1.96036
0.0181250 1.92624
0.0187500 1.89383
0.0193750 1.86301
0.0200000 1.83364
0.0206625 1.80397
0.0213250 1.77570
0.0219875 1.74872
0.0226500 1.72293
0.0233125 1.69825
0.0239750 1.67460
0.0246375 1.65191
0.0253000 1.63011
0.0264578 1.59401
0.0276156 1.56020
0.0287734 1.52846
0.0299313 1.49858
0.0310891 1.47039
0.0322469 1.44373
0.0334047 1.41847
0.0345625 1.39448
0.0355274 1.37540
0.0364922 1.35707
0.0374570 1.33946
0.0384219 1.32250
0.0393867 1.30618
0.0403516 1.29044
0.0413164 1.27526
0.0422813 1.26059
0.0442109 1.23272
0.0461406 1.20662
0.0480703 1.18210
0.0500000 1.15901
0.0515625 1.14128
0.0531250 1.12433
0.0546875 1.10812
0.0562500 1.09258
0.0578125 1.07768
0.0593750 1.06338
0.0609375 1.04962
0.0625000 1.03639
0.0640625 1.02365
0.0656250 1.01136
0.0671875 0.999512
0.0687500 0.988068
0.0718750 0.966305
0.0750000 0.945909
0.0781250 0.926740
0.0812500 0.908684
0.0843750 0.891638
0.0875000 0.875513
0.0906250 0.860229
0.0937500 0.845715
0.0968750 0.831909
0.100000 0.818754
0.103125 0.806201
0.106250 0.794206
0.109375 0.782729
0.112500 0.771732
0.115625 0.761184
0.118750 0.751054
0.121875 0.741317
0.125000 0.731948
0.128125 0.722925
0.131250 0.714229
0.134375 0.705840
0.137500 0.697741
0.143750 0.682336
0.150000 0.667893
0.156250 0.654316
0.162500 0.641527
0.168750 0.629455
0.175000 0.618034
0.181250 0.607208
0.187500 0.596930
0.193750 0.587156
0.200000 0.577848
0.209375 0.564671
0.218750 0.552338
0.228125 0.540767
0.237500 0.529886
0.246875 0.519629
0.256250 0.509939
0.265625 0.500766
0.275000 0.492064
0.284375 0.483796
0.293750 0.475925
0.303125 0.468420
0.312500 0.461255
0.321875 0.454405
0.331250 0.447846
0.340625 0.441559
0.350000 0.435525
0.359375 0.429728
0.368750 0.424152
0.378125 0.418785
0.387500 0.413614
0.396875 0.408631
0.406250 0.403826
0.425000 0.394689
0.443750 0.386119
0.462500 0.378071
0.500000 0.363376
0.531250 0.352333
0.562500 0.342192
0.593750 0.332859
0.625000 0.324230
0.687500 0.308761
0.750000 0.295255
0.812500 0.283327
0.875000 0.272716
0.937500 0.263173
1.00000 0.254504
1.06250 0.246604
1.12500 0.239364
1.18750 0.232698
1.25000 0.226531
1.37500 0.215469
1.50000 0.205800
1.62500 0.197253
1.75000 0.189638
1.87500 0.182784
2.00000 0.176551
2.18750 0.168208
2.37500 0.160858
2.56250 0.154312
2.75000 0.148441
2.93750 0.143127
3.12500 0.138278
3.31250 0.133835
3.50000 0.129744
3.68750 0.125960
3.87500 0.122446
4.25000 0.116107
4.62500 0.110531
5.00000 0.105577
5.31250 0.101843
5.62500 0.0984090
5.93750 0.0952399
6.25000 0.0923028
6.56250 0.0895699
6.87500 0.0870184
7.50000 0.0823841
8.12500 0.0782747
8.75000 0.0745998
9.37500 0.0712847
10.0000 0.0682705
10.6250 0.0655165
11.2500 0.0629872
11.8750 0.0606534
12.5000 0.0584911
13.1250 0.0564804
13.7500 0.0546044
14.3750 0.0528488
15.0000 0.0512015
16.2500 0.0481907
17.5000 0.0455048
18.7500 0.0430893
20.0000 0.0409007
20.9375 0.0393895
21.8750 0.0379780
22.8125 0.0366554
23.7500 0.0354134
25.6250 0.0331420
27.5000 0.0311160
29.3750 0.0292959
31.2500 0.0276504
33.1250 0.0261562
35.0000 0.0247933
36.8750 0.0235453
38.7500 0.0223984
40.6250 0.0213410
42.5000 0.0203632
44.3750 0.0194567
46.2500 0.0186142
48.1250 0.0178293
50.0000 0.0170970
53.1250 0.0159795
56.2500 0.0149745
59.3750 0.0140670
62.5000 0.0132444
65.6250 0.0124960
68.7500 0.0118128
71.8750 0.0111873
75.0000 0.0106129
78.1250 0.0100841
81.2500 0.00959610
84.3750 0.00914475
87.5000 0.00872639
90.6250 0.00833785
93.7500 0.00797633
96.8750 0.00763934
100.000 0.00732471
103.125 0.00703049
106.250 0.00675493
109.375 0.00649648
112.500 0.00625377
115.625 0.00602552
118.750 0.00581061
121.875 0.00560803
125.000 0.00541698
131.250 0.00506567
137.500 0.00475069
143.750 0.00446735
150.000 0.00421158
156.250 0.00397992
162.500 0.00376948
168.750 0.00357775
175.000 0.00340262
181.250 0.00324223
187.500 0.00309500
193.750 0.00295955
200.000 0.00283470
209.375 0.00266496
218.750 0.00251358
228.125 0.00237808
237.500 0.00225636
246.875 0.00214665
256.250 0.00204747
265.625 0.00195753
275.000 0.00187577
284.375 0.00180124
293.750 0.00173316
303.125 0.00167083
312.500 0.00161365
321.875 0.00156110
331.250 0.00151271
350.000 0.00142688
368.750 0.00135351
387.500 0.00129048
406.250 0.00123611
425.000 0.00118910
443.750 0.00114838
462.500 0.00111310
481.250 0.00108255
500.000 0.00105617
517.688 0.00103479
535.377 0.00101639
570.753 0.000987626
588.442 0.000977032
606.130 0.000969809
623.819 0.000963775
641.507 0.000961560
664.109 0.000966712
675.410 0.000973076
686.710 0.000985832
698.011 0.00100939
709.312 0.00105685
714.963 0.00110013
720.613 0.00116085
726.264 0.00127794
729.089 0.00137185
731.914 0.00150037
734.862 0.00172040
736.336 0.00188166
737.810 0.00209201
738.854 0.00228867
739.898 0.00254427
740.942 0.00287997
741.987 0.00333312
743.031 0.00396401
743.553 0.00437144
744.075 0.00486638
744.597 0.00548424
745.119 0.00626530
745.641 0.00726925
746.163 0.00858931
746.562 0.00990185
746.961 0.0115834
747.361 0.0137860
747.760 0.0167642
747.959 0.0186724
748.159 0.0209634
748.359 0.0237504
748.558 0.0271943
748.758 0.0315397
748.957 0.0371891
749.157 0.0449357
749.257 0.0501094
749.357 0.0567125
749.426 0.0625261
749.495 0.0698167
749.564 0.0791884
749.633 0.0915095
749.702 0.108012
749.771 0.130417
749.806 0.144563
749.840 0.161085
749.875 0.180504
749.909 0.203193
749.944 0.229839
749.979 0.260916
750.013 0.297316
750.048 0.339619
750.082 0.388954
750.117 0.446008
750.151 0.512177
750.186 0.588232
750.220 0.675860
750.255 0.775879
750.290 0.890268
750.324 1.01983
750.341 1.09109
750.359 1.16681
750.376 1.24718
750.393 1.33189
750.410 1.42212
750.428 1.51700
750.445 1.61784
750.462 1.72364
750.493 1.92748
750.508 2.03658
750.524 2.14984
750.539 2.26888
750.554 2.39223
750.570 2.52160
750.585 2.65541
750.616 2.94005
750.646 3.24664
750.677 3.57550
750.708 3.92677
750.739 4.30036
750.769 4.69592
750.800 5.11285
750.831 5.55027
750.861 6.00700
750.892 6.48156
750.953 7.47664
751.015 8.51914
751.076 9.58281
751.138 10.6424
751.199 11.6678
751.234 12.2186
751.268 12.7412
751.303 13.2329
751.337 13.6855
751.380 14.1802
751.422 14.6020
751.468 14.9706
751.508 15.2078
751.529 15.2989
751.550 15.3665
751.572 15.4108
751.598 15.4319
751.600 15.4320
751.606 15.4309
751.612 15.4277
751.625 15.4154
751.646 15.3744
751.667 15.3109
751.688 15.2244
751.727 14.9984
751.769 14.6774
751.811 14.2766
751.853 13.8030
751.885 13.3913
751.917 12.9464
751.949 12.4715
751.981 11.9712
752.038 11.0390
752.095 10.0689
752.209 8.10691
752.266 7.15586
752.322 6.25102
752.351 5.81807
752.379 5.40245
752.408 5.00370
752.436 4.62269
752.465 4.25881
752.493 3.91506
752.521 3.59038
752.550 3.28484
752.578 2.99738
752.607 2.72977
752.635 2.48062
752.664 2.24943
752.694 2.02193
752.724 1.81342
752.755 1.62241
752.785 1.44921
752.815 1.29217
752.845 1.15026
752.876 1.02206
752.906 0.907372
752.936 0.804744
752.967 0.713186
752.997 0.631745
753.027 0.559506
753.058 0.495603
753.088 0.439217
753.115 0.395306
753.141 0.356254
753.168 0.321315
753.194 0.290336
753.221 0.262697
753.247 0.238250
753.300 0.197333
753.353 0.165155
753.406 0.139967
753.459 0.120152
753.512 0.104571
753.566 0.0922008
753.619 0.0823192
753.672 0.0743423
753.725 0.0678331
753.831 0.0578880
753.937 0.0506506
754.043 0.0450835
754.149 0.0406157
754.361 0.0337585
754.574 0.0286707
754.786 0.0247355
755.074 0.0206465
755.362 0.0175574
755.650 0.0151598
755.938 0.0132549
756.226 0.0117108
756.514 0.0104404
757.090 0.00849324
757.666 0.00709239
758.242 0.00605120
758.818 0.00525708
759.394 0.00464101
760.122 0.00403666
760.849 0.00356453
761.577 0.00319228
762.305 0.00289450
763.760 0.00245314
765.215 0.00214969
766.974 0.00189254
768.732 0.00170786
770.491 0.00157302
772.249 0.00147828
775.766 0.00133319
779.283 0.00124162
782.800 0.00118089
786.317 0.00114366
793.351 0.00108578
800.385 0.00105320
807.418 0.00103385
821.486 0.00101542
829.248 0.00101171
843.800 0.00101163
858.353 0.00101773
887.459 0.00104313
916.564 0.00108783
931.117 0.00112209
945.670 0.00117074
959.252 0.00124139
966.044 0.00129339
972.835 0.00136474
979.626 0.00146822
986.418 0.00161833
989.813 0.00173293
993.209 0.00188651
996.604 0.00210008
1000.00 0.00241059
1002.87 0.00280138
1004.31 0.00306621
1005.74 0.00340378
1007.18 0.00383770
1008.61 0.00440893
1010.05 0.00518270
1011.48 0.00625066
1012.29 0.00704796
1013.10 0.00806120
1013.90 0.00936371
1014.71 0.0110753
1015.52 0.0133884
1015.92 0.0148564
1016.33 0.0165960
1016.73 0.0186982
1017.13 0.0212690
1017.54 0.0244794
1017.94 0.0285336
1018.25 0.0324864
1018.57 0.0373789
1018.88 0.0435482
1019.20 0.0515098
1019.35 0.0564018
1019.51 0.0620862
1019.67 0.0687642
1019.82 0.0767129
1019.98 0.0863624
1020.14 0.0984361
1020.29 0.114283
1020.37 0.124309
1020.45 0.136436
1020.52 0.149326
1020.59 0.164866
1020.65 0.184168
1020.72 0.208494
1020.79 0.240046
1020.85 0.280141
1020.89 0.304804
1020.92 0.332074
1020.96 0.364103
1020.99 0.399546
1021.02 0.441181
1021.06 0.488723
1021.09 0.542972
1021.12 0.602879
1021.16 0.673025
1021.19 0.750286
1021.22 0.840481
1021.26 0.939490
1021.29 1.05464
1021.33 1.18458
1021.36 1.33087
1021.39 1.49006
1021.43 1.67350
1021.46 1.87210
1021.48 1.98288
1021.49 2.09974
1021.53 2.34485
1021.54 2.48101
1021.56 2.62422
1021.58 2.77474
1021.59 2.93281
1021.61 3.09868
1021.63 3.27260
1021.65 3.45481
1021.66 3.63410
1021.68 3.83309
1021.70 4.04107
1021.71 4.25826
1021.73 4.48488
1021.75 4.72114
1021.76 4.96722
1021.80 5.47366
1021.83 6.03620
1021.86 6.64117
1021.90 7.28939
1021.93 7.96038
1021.97 8.69491
1022.00 9.44955
1022.03 10.2694
1022.07 11.1050
1022.11 12.1685
1022.14 13.2555
1022.18 14.3877
1022.22 15.5598
1022.30 18.0301
1022.38 20.5427
1022.48 23.6255
1022.52 25.1177
1022.57 26.5206
1022.63 28.2490
1022.69 29.7744
1022.73 30.5979
1022.77 31.3159
1022.80 31.8629
1022.83 32.3257
1022.88 32.9221
1022.91 33.2088
1022.94 33.4157
1022.97 33.5355
1023.00 33.5836
1023.00 33.5841
1023.01 33.5764
1023.03 33.5565
1023.05 33.4572
1023.08 33.2934
1023.11 33.0733
1023.15 32.5743
1023.21 31.7504
1023.27 30.6045
1023.32 29.3528
1023.38 27.9365
1023.42 26.8200
1023.46 25.6442
1023.54 23.1633
1023.65 19.6199
1023.70 17.8554
1023.76 16.1298
1023.81 14.4646
1023.87 12.8779
1023.90 12.1050
1023.92 11.3840
1023.95 10.6625
1023.98 9.99324
1024.01 9.32724
1024.03 8.71266
1024.06 8.10433
1024.09 7.54585
1024.12 6.99583
1024.14 6.49341
1024.17 6.00102
1024.20 5.55340
1024.23 5.13192
1024.25 4.75016
1024.28 4.39140
1024.30 4.05492
1024.33 3.72828
1024.36 3.43485
1024.38 3.16126
1024.41 2.90667
1024.44 2.66145
1024.46 2.44284
1024.49 2.24052
1024.51 2.05361
1024.54 1.87487
1024.57 1.71666
1024.59 1.57123
1024.62 1.43776
1024.65 1.31097
1024.67 1.19946
1024.70 1.09757
1024.72 1.00461
1024.75 0.916796
1024.78 0.839985
1024.80 0.770165
1024.83 0.706768
1024.86 0.647158
1024.88 0.595238
1024.91 0.548223
1024.93 0.505680
1024.99 0.431161
1025.04 0.371582
1025.10 0.317960
1025.15 0.275836
1025.21 0.241477
1025.27 0.214291
1025.33 0.191873
1025.38 0.173870
1025.44 0.158751
1025.50 0.146348
1025.61 0.126714
1025.73 0.111990
1025.84 0.100427
1025.96 0.0909968
1026.07 0.0830845
1026.19 0.0763091
1026.42 0.0652521
1026.65 0.0565964
1026.88 0.0496502
1027.20 0.0420246
1027.52 0.0361024
1027.84 0.0314028
1028.16 0.0276097
1028.48 0.0245050
1028.80 0.0219303
1029.12 0.0197676
1029.44 0.0179284
1030.08 0.0149811
1030.72 0.0127496
1031.36 0.0110235
1032.00 0.00966129
1033.04 0.00799735
1034.08 0.00679630
1035.12 0.00587817
1036.16 0.00517085
1037.20 0.00461529
1038.24 0.00417150
1040.32 0.00351648
1042.40 0.00307719
1044.48 0.00274582
1046.56 0.00250070
1048.64 0.00231653
1052.48 0.00207986
1056.31 0.00193306
1060.15 0.00182411
1063.99 0.00175098
1071.67 0.00167311
1079.35 0.00164296
1086.39 0.00164648
1093.43 0.00167045
1100.47 0.00171426
1107.50 0.00178045
1114.54 0.00187082
1121.58 0.00199741
1128.62 0.00217375
1135.66 0.00242294
1139.50 0.00261257
1143.34 0.00285530
1147.18 0.00315082
1151.02 0.00355843
1154.86 0.00412477
1156.78 0.00448968
1158.70 0.00492957
1160.62 0.00547488
1162.53 0.00615736
1164.45 0.00698794
1166.37 0.00808936
1168.29 0.00955412
1169.25 0.0104734
1170.21 0.0115571
1171.25 0.0129657
1172.29 0.0146798
1173.33 0.0167863
1174.37 0.0194645
1174.89 0.0210805
1175.41 0.0229244
1175.93 0.0250413
1176.45 0.0274881
1176.97 0.0303369
1177.49 0.0336783
1178.01 0.0376272
1178.53 0.0423319
1178.97 0.0470863
1179.41 0.0527406
1179.85 0.0595371
1180.29 0.0678011
1180.51 0.0726187
1180.73 0.0779865
1180.95 0.0839920
1181.17 0.0907411
1181.39 0.0983635
1181.61 0.107020
1181.83 0.116914
1182.05 0.128245
1182.27 0.141446
1182.49 0.156894
1182.71 0.175154
1182.93 0.196984
1183.04 0.209553
1183.15 0.223443
1183.26 0.238869
1183.37 0.256085
1183.48 0.275429
1183.59 0.297344
1183.70 0.322444
1183.81 0.351605
1183.93 0.389600
1183.99 0.411778
1184.05 0.436670
1184.11 0.464881
1184.17 0.497188
1184.23 0.534589
1184.29 0.578364
1184.35 0.630150
1184.41 0.692026
1184.47 0.766623
1184.50 0.809695
1184.53 0.857247
1184.56 0.909821
1184.59 0.968018
1184.62 1.03251
1184.65 1.10403
1184.68 1.18340
1184.71 1.27152
1184.74 1.36937
1184.77 1.47805
1184.81 1.64184
1184.83 1.73269
1184.85 1.83008
1184.87 1.93443
1184.89 2.04623
1184.91 2.16595
1184.93 2.29412
1184.95 2.43127
1184.97 2.57798
1184.99 2.73483
1185.01 2.90243
1185.03 3.08144
1185.05 3.27253
1185.07 3.47637
1185.09 3.69371
1185.11 3.92527
1185.13 4.17183
1185.15 4.43418
1185.17 4.71314
1185.19 5.00953
1185.21 5.32422
1185.23 5.65807
1185.25 6.01198
1185.27 6.38685
1185.29 6.78361
1185.31 7.20316
1185.33 7.64646
1185.35 8.11443
1185.37 8.60802
1185.39 9.12816
1185.41 9.67579
1185.44 10.4904
1185.47 11.3310
1185.49 12.2621
1185.52 13.2194
1185.55 14.2759
1185.58 15.3581
1185.60 16.5479
1185.63 17.7617
1185.66 19.0910
1185.69 20.4419
1185.71 21.9151
1185.74 23.4061
1185.77 25.0253
1185.80 26.6569
1185.82 28.4212
1185.85 30.1912
1185.88 32.0965
1185.91 33.9993
1185.96 38.0640
1186.02 42.3608
1186.07 46.8569
1186.13 51.5116
1186.18 56.2761
1186.29 65.9053
1186.36 71.9092
1186.43 77.6434
1186.49 81.8609
1186.54 85.7461
1186.59 89.1103
1186.65 91.9925
1186.70 94.5354
1186.76 96.5102
1186.80 97.7386
1186.83 98.2191
1186.86 98.5882
1186.90 98.7408
1186.94 98.5474
1186.97 98.1620
1187.00 97.5952
1187.05 96.2367
1187.10 94.3392
1187.16 91.4888
1187.22 88.5870
1187.27 85.3628
1187.32 81.7385
1187.37 77.8305
1187.45 71.4366
1187.52 64.7232
1187.63 55.7957
1187.73 47.1539
1187.79 41.8504
1187.86 36.9055
1187.89 34.4799
1187.92 32.2152
1187.95 30.0404
1187.98 27.9585
1188.01 26.3368
1188.04 24.8373
1188.06 23.3406
1188.09 21.9618
1188.11 20.5906
1188.14 19.3320
1188.16 18.1315
1188.19 16.9884
1188.21 15.8594
1188.24 14.8302
1188.26 13.8172
1188.29 12.8967
1188.32 11.9937
1188.34 11.1758
1188.37 10.4057
1188.39 9.68162
1188.41 9.08118
1188.43 8.51382
1188.46 7.97831
1188.48 7.47340
1188.50 6.99785
1188.52 6.55040
1188.54 6.12983
1188.57 5.75233
1188.59 5.38077
1188.61 5.03254
1188.63 4.70646
1188.65 4.40141
1188.68 4.11627
1188.70 3.84997
1188.72 3.60148
1188.74 3.37995
1188.76 3.16337
1188.78 2.96171
1188.81 2.77409
1188.83 2.59962
1188.85 2.43750
1188.87 2.28693
1188.89 2.14716
1188.92 2.02317
1188.94 1.90250
1188.96 1.79062
1188.98 1.68694
1189.00 1.59087
1189.03 1.50188
1189.05 1.41947
1189.09 1.27555
1189.13 1.17334
1189.16 1.08284
1189.20 1.00267
1189.23 0.933486
1189.26 0.870140
1189.30 0.815326
1189.33 0.764967
1189.37 0.721217
1189.40 0.680837
1189.44 0.645576
1189.51 0.584092
1189.57 0.533467
1189.64 0.491194
1189.71 0.454904
1189.78 0.424199
1189.85 0.397456
1189.92 0.373878
1189.99 0.352867
1190.06 0.333969
1190.20 0.301205
1190.33 0.275118
1190.46 0.252764
1190.58 0.233230
1190.71 0.216017
1190.84 0.200747
1190.97 0.187118
1191.10 0.174893
1191.23 0.163879
1191.49 0.144865
1191.75 0.129083
1192.00 0.115820
1192.26 0.104554
1192.52 0.0948619
1192.78 0.0865217
1193.04 0.0792643
1193.29 0.0729092
1193.55 0.0673127
1193.81 0.0623592
1194.07 0.0579542
1194.33 0.0540197
1194.84 0.0472974
1195.36 0.0418045
1195.88 0.0372407
1196.39 0.0334096
1196.98 0.0297417
1197.57 0.0266757
1198.16 0.0240867
1198.75 0.0218812
1199.34 0.0199911
1199.93 0.0183639
1201.11 0.0156940
1202.29 0.0136004
1203.47 0.0119414
1204.65 0.0106055
1205.83 0.00951388
1207.60 0.00821891
1209.37 0.00724259
1211.14 0.00644511
1212.91 0.00580936
1214.68 0.00529679
1216.45 0.00487390
1219.99 0.00422335
1223.53 0.00375973
1227.07 0.00342951
1230.61 0.00316233
1234.15 0.00295846
1240.05 0.00271831
1245.95 0.00255502
1251.85 0.00244238
1257.75 0.00237845
1259.52 0.00239432
1259.96 0.00242903
1260.18 0.00248455
1260.41 0.00261426
1260.52 0.00273179
1260.63 0.00290452
1260.74 0.00315285
1260.85 0.00349757
1260.96 0.00397228
1261.07 0.00459657
1261.18 0.00540841
1261.29 0.00641363
1261.41 0.00778591
1261.54 0.00939667
1261.78 0.0131752
1262.02 0.0170765
1262.15 0.0187316
1262.27 0.0200117
1262.42 0.0208985
1262.49 0.0210345
1262.50 0.0210385
1262.53 0.0210189
1262.56 0.0209614
1262.66 0.0205671
1262.84 0.0188621
1263.03 0.0162713
1263.44 0.00968963
1263.55 0.00826643
1263.65 0.00701761
1263.76 0.00595553
1263.86 0.00508611
1264.01 0.00408652
1264.17 0.00340760
1264.33 0.00297093
1264.48 0.00270477
1264.64 0.00254699
1264.79 0.00245735
1265.10 0.00237747
1266.35 0.00232036
1268.84 0.00228730
1273.82 0.00226136
1283.78 0.00224639
1295.73 0.00226255
1307.68 0.00230557
1319.63 0.00236845
1331.58 0.00244933
1343.53 0.00254733
1355.48 0.00266258
1367.43 0.00279604
1379.38 0.00294979
1388.68 0.00308586
1397.97 0.00323761
1407.27 0.00340648
1416.56 0.00359143
1425.86 0.00380173
1435.15 0.00403792
1444.45 0.00430371
1453.74 0.00460462
1460.38 0.00484593
1467.02 0.00511150
1473.66 0.00540388
1480.30 0.00572796
1486.94 0.00609114
1493.58 0.00649743
1496.90 0.00671685
1500.22 0.00695264
1503.54 0.00720011
1506.85 0.00746621
1509.68 0.00770663
1512.50 0.00796115
1515.32 0.00823097
1518.14 0.00851731
1519.55 0.00866714
1520.96 0.00882190
1522.37 0.00898103
1523.78 0.00914488
1525.20 0.00931495
1526.61 0.00949077
1528.02 0.00967256
1529.43 0.00986048
1530.76 0.0100435
1532.08 0.0102326
1533.41 0.0104281
1534.74 0.0106304
1536.07 0.0108398
1537.40 0.0110566
1538.72 0.0112813
1540.05 0.0115141
1540.96 0.0116793
1541.88 0.0118488
1542.79 0.0120227
1543.70 0.0122013
1544.62 0.0123847
1545.53 0.0125731
1546.44 0.0127667
1547.35 0.0129655
1548.27 0.0131702
1549.18 0.0133808
1550.09 0.0135975
1551.01 0.0138207
1551.92 0.0140506
1552.83 0.0142876
1553.74 0.0145319
1554.66 0.0147836
1555.45 0.0150079
1556.23 0.0152381
1557.02 0.0154752
1557.81 0.0157188
1558.60 0.0159699
1559.39 0.0162280
1560.18 0.0164943
1560.96 0.0167684
1561.75 0.0170514
1562.54 0.0173430
1563.33 0.0176443
1564.12 0.0179550
1564.91 0.0182760
1565.70 0.0186070
1566.48 0.0189499
1567.27 0.0193051
1568.18 0.0197327
1569.10 0.0201784
1570.01 0.0206435
1570.92 0.0211292
1571.84 0.0216369
1572.75 0.0221684
1573.66 0.0227253
1574.57 0.0233089
1575.49 0.0239225
1576.40 0.0245680
1577.31 0.0252480
1578.23 0.0259646
1579.14 0.0267228
1580.05 0.0275254
1580.96 0.0283768
1581.88 0.0292808
1582.79 0.0302450
1583.70 0.0312748
1584.62 0.0323779
1585.53 0.0335630
1586.44 0.0348408
1587.35 0.0362240
1588.27 0.0377282
1589.18 0.0393731
1590.01 0.0410112
1590.84 0.0428100
1591.67 0.0448012
1592.50 0.0470271
1593.33 0.0495472
1594.16 0.0524459
1594.99 0.0558500
1595.82 0.0599733
1596.23 0.0624215
1596.65 0.0652188
1597.06 0.0684714
1597.48 0.0723371
1597.89 0.0770620
1598.31 0.0830604
1598.72 0.0911387
1598.93 0.0964958
1599.14 0.103449
1599.36 0.113944
1599.47 0.121341
1599.57 0.131071
1599.68 0.144226
1599.79 0.162387
1599.90 0.187811
1599.96 0.204349
1600.01 0.223634
1600.07 0.246957
1600.12 0.274117
1600.17 0.306876
1600.23 0.344879
1600.28 0.390497
1600.34 0.443116
1600.39 0.505869
1600.45 0.577735
1600.50 0.662775
1600.56 0.759355
1600.61 0.872634
1600.66 1.00010
1600.72 1.14817
1600.77 1.31313
1600.83 1.49914
1600.88 1.70775
1600.93 1.92237
1600.98 2.15378
1601.03 2.41233
1601.08 2.68841
1601.13 2.99384
1601.18 3.31669
1601.23 3.66288
1601.28 4.03212
1601.33 4.43207
1601.38 4.84578
1601.42 5.27972
1601.47 5.73220
1601.52 6.21087
1601.57 6.69409
1601.67 7.69059
1601.76 8.61111
1601.85 9.51182
1601.94 10.3778
1602.02 11.1824
1602.07 11.5536
1602.11 11.8996
1602.16 12.2175
1602.20 12.5045
1602.25 12.8002
1602.30 13.0451
1602.36 13.2516
1602.40 13.3646
1602.43 13.4148
1602.46 13.4480
1602.49 13.4649
1602.50 13.4656
1602.53 13.4569
1602.56 13.4310
1602.58 13.3951
1602.61 13.3254
1602.66 13.1723
1602.70 13.0487
1602.75 12.8202
1602.79 12.5526
1602.84 12.2716
1602.88 11.9593
1602.93 11.6183
1602.97 11.2518
1603.06 10.4548
1603.14 9.60450
1603.23 8.70752
1603.32 7.80908
1603.41 6.91154
1603.50 6.04539
1603.54 5.62941
1603.58 5.22716
1603.63 4.84009
1603.67 4.47761
1603.71 4.12380
1603.76 3.78798
1603.80 3.47062
1603.85 3.17201
1603.89 2.89220
1603.93 2.63109
1603.98 2.38841
1604.02 2.16865
1604.05 2.01137
1604.09 1.86801
1604.12 1.72932
1604.15 1.60343
1604.18 1.48213
1604.22 1.37245
1604.25 1.27027
1604.28 1.17525
1604.31 1.08439
1604.35 1.00286
1604.38 0.927446
1604.41 0.857822
1604.44 0.791728
1604.47 0.732833
1604.54 0.629116
1604.60 0.540905
1604.67 0.467596
1604.73 0.407028
1604.80 0.357950
1604.86 0.317128
1604.93 0.284356
1604.99 0.257317
1605.06 0.235759
1605.12 0.218070
1605.19 0.203824
1605.31 0.183258
1605.44 0.169847
1605.57 0.161011
1605.70 0.155055
1605.83 0.151030
1606.09 0.146299
1606.39 0.143898
1606.79 0.143462
1607.20 0.145140
1607.60 0.148349
1608.01 0.152804
1608.42 0.158380
1608.82 0.164990
1609.23 0.172646
1609.64 0.181390
1610.04 0.191327
1610.45 0.202523
1610.86 0.215186
1611.26 0.229447
1611.67 0.245618
1612.07 0.263920
1612.28 0.273997
1612.48 0.284762
1612.68 0.296277
1612.89 0.308609
1613.16 0.326895
1613.44 0.347072
1613.72 0.369407
1613.99 0.394219
1614.27 0.421894
1614.55 0.452895
1614.83 0.487781
1614.96 0.506961
1615.10 0.527238
1615.31 0.559703
1615.51 0.595323
1615.71 0.634721
1615.92 0.678461
1616.12 0.727217
1616.32 0.781804
1616.42 0.811737
1616.52 0.843213
1616.63 0.877018
1616.73 0.912665
1616.82 0.945639
1616.90 0.980549
1616.99 1.01755
1617.08 1.05637
1617.17 1.09809
1617.25 1.14249
1617.34 1.18983
1617.43 1.23979
1617.52 1.29381
1617.61 1.35171
1617.69 1.41388
1617.78 1.47998
1617.87 1.55206
1617.96 1.62998
1618.04 1.71445
1618.13 1.80516
1618.23 1.92190
1618.34 2.05150
1618.44 2.19607
1618.49 2.27474
1618.54 2.35647
1618.59 2.44493
1618.64 2.53898
1618.69 2.63911
1618.74 2.74371
1618.79 2.85757
1618.84 2.97932
1618.89 3.10971
1618.94 3.24670
1619.00 3.39666
1619.05 3.55793
1619.10 3.73157
1619.15 3.91497
1619.20 4.11672
1619.25 4.33468
1619.30 4.57038
1619.35 4.82025
1619.40 5.09603
1619.45 5.39480
1619.50 5.71859
1619.55 6.06238
1619.60 6.44213
1619.66 6.85362
1619.71 7.29930
1619.76 7.77190
1619.79 8.10435
1619.82 8.44311
1619.85 8.81006
1619.89 9.18361
1619.92 9.58783
1619.95 9.99887
1620.02 10.8798
1620.08 11.8588
1620.14 12.9104
1620.21 14.0711
1620.27 15.3084
1620.32 16.3629
1620.38 17.4785
1620.43 18.6554
1620.48 19.8927
1620.53 21.1891
1620.58 22.5426
1620.63 23.9502
1620.68 25.3792
1620.78 28.4261
1620.88 31.5777
1621.09 38.0675
1621.19 41.1907
1621.29 44.1245
1621.38 46.8155
1621.48 49.1797
1621.57 50.9979
1621.62 51.7541
1621.66 52.4082
1621.71 52.9663
1621.76 53.4000
1621.80 53.7193
1621.85 53.9219
1621.90 54.0088
1621.95 53.9450
1621.99 53.7629
1622.04 53.4637
1622.08 53.0497
1622.13 52.5111
1622.17 51.8753
1622.26 50.3003
1622.35 48.4295
1622.44 46.2922
1622.52 43.8924
1622.61 41.3410
1622.79 35.6384
1622.97 29.8810
1623.06 27.0949
1623.15 24.4632
1623.20 23.1753
1623.24 21.9568
1623.29 20.7814
1623.33 19.6510
1623.38 18.5433
1623.42 17.5072
1623.47 16.5188
1623.51 15.5780
1623.56 14.6846
1623.60 13.8381
1623.65 13.0376
1623.69 12.2821
1623.74 11.5857
1623.78 10.9442
1623.82 10.3401
1623.87 9.77179
1623.91 9.23791
1623.95 8.73688
1624.00 8.26712
1624.04 7.82705
1624.08 7.40583
1624.13 7.02101
1624.17 6.66117
1624.21 6.32480
1624.25 6.01046
1624.30 5.71674
1624.34 5.44229
1624.38 5.18584
1624.43 4.93002
1624.47 4.69697
1624.52 4.47967
1624.56 4.27695
1624.61 4.08366
1624.66 3.90715
1624.70 3.74213
1624.75 3.58771
1624.79 3.43997
1624.84 3.30456
1624.88 3.17748
1624.93 3.05808
1624.97 2.94577
1625.02 2.84002
1625.06 2.74033
1625.11 2.64624
1625.15 2.55543
1625.20 2.47144
1625.24 2.39191
1625.29 2.31651
1625.33 2.24495
1625.38 2.17696
1625.47 2.05075
1625.56 1.93493
1625.65 1.83060
1625.74 1.73517
1625.83 1.64762
1625.89 1.59142
1625.95 1.53827
1626.01 1.48795
1626.08 1.44100
1626.14 1.39569
1626.20 1.35332
1626.26 1.31235
1626.32 1.27397
1626.38 1.23678
1626.44 1.20188
1626.51 1.16800
1626.57 1.13615
1626.69 1.07603
1626.81 1.02089
1626.90 0.982969
1626.99 0.947652
1627.09 0.913981
1627.18 0.882543
1627.27 0.852499
1627.36 0.824381
1627.45 0.797450
1627.54 0.772193
1627.63 0.747953
1627.72 0.725176
1627.81 0.703275
1627.90 0.682660
1627.99 0.662804
1628.08 0.644082
1628.17 0.626215
1628.26 0.609151
1628.35 0.592665
1628.44 0.577076
1628.53 0.562156
1628.62 0.547868
1628.71 0.534027
1628.80 0.520905
1628.89 0.508316
1628.98 0.496231
1629.07 0.484497
1629.16 0.473347
1629.25 0.462626
1629.34 0.452313
1629.43 0.442279
1629.52 0.432725
1629.61 0.423521
1629.70 0.414651
1629.80 0.406004
1629.89 0.397757
1629.98 0.389711
1630.07 0.382030
1630.16 0.374531
1630.25 0.367367
1630.34 0.360442
1630.43 0.353747
1630.52 0.347201
1630.61 0.340937
1630.70 0.334809
1630.79 0.328941
1630.97 0.317693
1631.15 0.307190
1631.33 0.297261
1631.51 0.287918
1631.69 0.279116
1631.87 0.270862
1632.05 0.263027
1632.24 0.255624
1632.42 0.248625
1632.60 0.242037
1632.83 0.234120
1633.06 0.226721
1633.29 0.219799
1633.52 0.213314
1633.75 0.207234
1633.98 0.201527
1634.21 0.196166
1634.44 0.191147
1634.65 0.186725
1634.86 0.182564
1634.97 0.180559
1635.08 0.178609
1635.18 0.176712
1635.29 0.174883
1635.40 0.173021
1635.51 0.171210
1635.62 0.169449
1635.73 0.167737
1635.96 0.164453
1636.18 0.161359
1636.40 0.158417
1636.62 0.155643
1636.84 0.153003
1637.06 0.150514
1637.42 0.146713
1637.79 0.143240
1638.15 0.140049
1638.51 0.137134
1638.87 0.134459
1639.23 0.132018
1639.59 0.129787
1639.95 0.127752
1640.20 0.126465
1640.45 0.125263
1640.69 0.124134
1640.94 0.123083
1641.19 0.122099
1641.43 0.121186
1641.92 0.119551
1642.42 0.118150
1642.91 0.116968
1643.40 0.115990
1643.90 0.115204
1644.29 0.114703
1644.68 0.114313
1645.08 0.114028
1645.47 0.113844
1646.20 0.113756
1646.92 0.113975
1647.64 0.114486
1648.36 0.115275
1649.09 0.116336
1649.81 0.117661
1650.53 0.119247
1651.25 0.121090
1651.98 0.123197
1652.70 0.125568
1653.42 0.128209
1654.15 0.131122
1654.87 0.134326
1655.59 0.137822
1656.31 0.141635
1657.04 0.145770
1657.76 0.150258
1658.48 0.155113
1659.20 0.160362
1659.93 0.166024
1660.65 0.172146
1661.37 0.178755
1662.10 0.185894
1662.82 0.193595
1663.54 0.201932
1664.26 0.210954
1664.99 0.220725
1665.71 0.231307
1666.43 0.242813
1667.15 0.255309
1667.88 0.268941
1668.60 0.283800
1669.32 0.300074
1669.68 0.308799
1670.04 0.317914
1670.41 0.327495
1670.77 0.337518
1671.13 0.348036
1671.49 0.359084
1671.85 0.370728
1672.21 0.382942
1672.57 0.395835
1672.94 0.409381
1673.30 0.423703
1673.66 0.438775
1674.02 0.454693
1674.38 0.471520
1674.94 0.499535
1675.50 0.530126
1676.06 0.563734
1676.34 0.581731
1676.61 0.600610
1676.89 0.620500
1677.17 0.641321
1677.45 0.663214
1677.73 0.686254
1678.01 0.710529
1678.29 0.736127
1678.57 0.763146
1678.85 0.791689
1679.21 0.831180
1679.57 0.873574
1679.93 0.919279
1680.29 0.968638
1680.65 1.02219
1681.02 1.08009
1681.38 1.14297
1681.74 1.21141
1682.10 1.28626
1682.46 1.36787
1682.82 1.45753
1683.18 1.55574
1683.55 1.66417
1683.73 1.72253
1683.91 1.78354
1684.09 1.84808
1684.27 1.91564
1684.45 1.98720
1684.63 2.06222
1684.81 2.14179
1684.99 2.22578
1685.17 2.31452
1685.35 2.40780
1685.53 2.50700
1685.71 2.61142
1685.89 2.72262
1686.07 2.83982
1686.25 2.96479
1686.44 3.09741
1686.62 3.23822
1686.80 3.38696
1686.98 3.54588
1687.16 3.71389
1687.34 3.89353
1687.52 4.08352
1687.69 4.27516
1687.86 4.47831
1688.03 4.69363
1688.20 4.92175
1688.37 5.16332
1688.54 5.41894
1688.72 5.68916
1688.89 5.97446
1689.06 6.27521
1689.23 6.59165
1689.40 6.92382
1689.57 7.27157
1689.74 7.63443
1689.91 8.01162
1690.25 8.80385
1690.60 9.63820
1690.94 10.4839
1691.28 11.3109
1691.63 12.0787
1691.80 12.4272
1691.97 12.7437
1692.14 13.0223
1692.31 13.2565
1692.49 13.4446
1692.66 13.5804
1692.83 13.6627
1693.00 13.6888
1693.21 13.6434
1693.38 13.5441
1693.56 13.3911
1693.73 13.1876
1693.90 12.9393
1694.07 12.6481
1694.24 12.3228
1694.41 11.9653
1694.59 11.5856
1694.93 10.7712
1695.27 9.92699
1695.62 9.08618
1695.96 8.27550
1696.23 7.66623
1696.50 7.09490
1696.77 6.56216
1697.04 6.06898
1697.31 5.61492
1697.59 5.19856
1697.86 4.81781
1698.13 4.47026
1698.39 4.15781
1698.66 3.87261
1698.93 3.61225
1699.19 3.37531
1699.46 3.15790
1699.73 2.95898
1700.00 2.77677
1700.26 2.61025
1700.55 2.44354
1700.84 2.29134
1701.13 2.15215
1701.43 2.02465
1701.72 1.90764
1702.01 1.80008
1702.30 1.70100
1702.59 1.60958
1702.86 1.53179
1703.12 1.45930
1703.39 1.39165
1703.66 1.32845
1703.92 1.26933
1704.19 1.21395
1704.46 1.16203
1704.72 1.11347
1704.99 1.06765
1705.26 1.02455
1705.53 0.983947
1705.79 0.945808
1706.06 0.909673
1706.33 0.875535
1706.59 0.843251
1706.86 0.812805
1707.39 0.756391
1707.93 0.705580
1708.46 0.659665
1708.99 0.618119
1709.53 0.580274
1710.06 0.545833
1710.59 0.514291
1711.13 0.485440
1711.52 0.465880
1711.90 0.447520
1712.29 0.430224
1712.68 0.413917
1713.07 0.398526
1713.46 0.383985
1714.23 0.357180
1715.01 0.333047
1715.78 0.311256
1716.56 0.291530
1717.34 0.273620
1717.87 0.262238
1718.40 0.251551
1718.94 0.241505
1719.47 0.232067
1720.01 0.223157
1720.54 0.214766
1721.07 0.206826
1721.61 0.199333
1722.67 0.185511
1723.74 0.173082
1724.81 0.161867
1725.87 0.151712
1726.94 0.142481
1728.01 0.134079
1729.08 0.126403
1730.14 0.119373
1731.21 0.112911
1732.28 0.106970
1733.34 0.101490
1734.41 0.0964295
1735.43 0.0919613
1736.45 0.0877938
1737.47 0.0838946
1738.49 0.0802536
1739.51 0.0768445
1740.52 0.0736538
1741.54 0.0706571
1742.56 0.0678452
1744.60 0.0627062
1746.63 0.0581382
1748.67 0.0540591
1750.71 0.0504016
1752.84 0.0469598
1754.98 0.0438668
1757.11 0.0410757
1759.25 0.0385487
1761.38 0.0362522
1763.51 0.0341611
1765.65 0.0322506
1767.78 0.0305006
1770.89 0.0282056
1773.99 0.0261690
1777.10 0.0243568
1780.20 0.0227346
1783.31 0.0212715
1786.41 0.0199522
1789.51 0.0187581
1792.62 0.0176741
1796.89 0.0163411
1801.15 0.0151615
1805.42 0.0141144
1809.69 0.0131834
1813.96 0.0123485
1818.23 0.0116010
1822.50 0.0109284
1826.77 0.0103211
1831.03 0.00977383
1835.30 0.00927844
1839.57 0.00883083
1843.84 0.00842803
1852.38 0.00774370
1860.91 0.00722449
1866.35 0.00700060
1871.78 0.00690301
1875.66 0.00697854
1879.54 0.00730637
1881.48 0.00766004
1883.42 0.00826259
1885.36 0.00932243
1886.33 0.0101554
1887.30 0.0113667
1887.88 0.0123669
1888.47 0.0136661
1889.05 0.0153917
1889.63 0.0177615
1890.21 0.0211711
1890.50 0.0234831
1890.79 0.0264068
1891.08 0.0302522
1891.38 0.0357119
1891.52 0.0395488
1891.67 0.0446272
1891.81 0.0517860
1891.96 0.0621933
1892.07 0.0734982
1892.18 0.0890067
1892.29 0.110592
1892.39 0.140675
1892.45 0.160063
1892.50 0.182468
1892.56 0.209279
1892.61 0.240132
1892.67 0.276870
1892.72 0.318914
1892.78 0.368675
1892.83 0.425252
1892.89 0.491747
1892.94 0.568284
1893.00 0.656029
1893.05 0.754266
1893.10 0.867885
1893.16 0.994009
1893.21 1.13861
1893.27 1.29768
1893.32 1.47839
1893.38 1.67532
1893.43 1.89687
1893.49 2.13597
1893.54 2.40228
1893.59 2.68674
1893.65 3.00028
1893.70 3.33162
1893.75 3.63213
1893.79 3.94207
1893.84 4.27476
1893.89 4.61511
1893.93 4.97740
1893.98 5.34487
1894.07 6.12234
1894.43 9.42032
1894.50 10.0478
1894.58 10.6382
1894.65 11.1799
1894.72 11.6561
1894.79 12.0389
1894.86 12.3521
1894.90 12.5087
1894.93 12.6360
1894.99 12.7653
1895.02 12.8229
1895.05 12.8610
1895.08 12.8792
1895.10 12.8815
1895.13 12.8737
1895.16 12.8507
1895.19 12.8127
1895.23 12.7289
1895.29 12.5649
1895.34 12.3659
1895.39 12.1223
1895.44 11.8655
1895.49 11.5768
1895.54 11.2589
1895.59 10.9146
1895.64 10.5232
1895.69 10.1176
1895.79 9.24696
1895.99 7.41432
1896.12 6.25904
1896.18 5.70335
1896.25 5.16868
1896.31 4.65885
1896.37 4.17690
1896.44 3.72507
1896.47 3.51095
1896.50 3.31120
1896.53 3.11300
1896.56 2.92296
1896.60 2.74110
1896.63 2.56739
1896.66 2.40176
1896.69 2.24412
1896.72 2.09436
1896.76 1.95666
1896.79 1.82197
1896.82 1.69467
1896.85 1.57456
1896.88 1.46142
1896.92 1.35504
1896.95 1.25516
1897.01 1.07658
1897.06 0.960413
1897.10 0.857550
1897.15 0.764625
1897.19 0.680923
1897.24 0.604168
1897.28 0.537004
1897.33 0.477016
1897.37 0.423580
1897.42 0.375108
1897.46 0.333137
1897.51 0.296024
1897.55 0.263279
1897.64 0.209112
1897.73 0.167418
1897.82 0.135207
1897.91 0.110970
1898.01 0.0923587
1898.10 0.0783736
1898.19 0.0675893
1898.28 0.0593998
1898.37 0.0530375
1898.46 0.0480281
1898.64 0.0407215
1898.82 0.0357032
1899.00 0.0319965
1899.18 0.0291058
1899.54 0.0247316
1899.90 0.0215480
1900.26 0.0191072
1900.63 0.0171896
1901.35 0.0143753
1902.07 0.0124392
1902.79 0.0110530
1903.52 0.0100279
1904.24 0.00923947
1905.69 0.00810593
1907.13 0.00735216
1908.58 0.00682480
1911.47 0.00614712
1913.85 0.00579820
1916.23 0.00555446
1921.00 0.00524764
1925.76 0.00508421
1930.52 0.00501256
1937.33 0.00505474
1940.73 0.00514740
1944.13 0.00530281
1947.54 0.00554279
1950.94 0.00590054
1954.34 0.00642974
1957.74 0.00722311
1959.45 0.00777970
1961.15 0.00848606
1962.85 0.00939751
1964.55 0.0105973
1966.25 0.0122170
1967.95 0.0144690
1968.80 0.0159354
1969.65 0.0176992
1970.50 0.0198631
1971.35 0.0225800
1972.04 0.0252890
1972.72 0.0286162
1973.31 0.0321996
1973.91 0.0365933
1974.50 0.0420830
1975.10 0.0490618
1975.69 0.0581879
1975.99 0.0638429
1976.29 0.0704220
1976.59 0.0781972
1976.88 0.0874532
1977.18 0.0986087
1977.48 0.112208
1977.76 0.127904
1978.03 0.147589
1978.17 0.159620
1978.31 0.173478
1978.45 0.189863
1978.59 0.209722
1978.72 0.234744
1978.86 0.266926
1978.93 0.286845
1979.00 0.310118
1979.07 0.337530
1979.14 0.370053
1979.21 0.409498
1979.28 0.456220
1979.35 0.512512
1979.42 0.580518
1979.48 0.662806
1979.55 0.762418
1979.62 0.882935
1979.66 0.953367
1979.69 1.02853
1979.75 1.17653
1979.81 1.34662
1979.84 1.44535
1979.87 1.54840
1979.90 1.65945
1979.93 1.77904
1979.96 1.91232
1979.98 2.05099
1980.01 2.19994
1980.04 2.35979
1980.07 2.53730
1980.10 2.72130
1980.13 2.91819
1980.16 3.12866
1980.19 3.36142
1980.22 3.60170
1980.25 3.85773
1980.28 4.13024
1980.31 4.43029
1980.34 4.73861
1980.36 5.06566
1980.39 5.41217
1980.42 5.79185
1980.45 6.18014
1980.48 6.59001
1980.51 7.02213
1980.54 7.47714
1980.57 7.95564
1980.60 8.45818
1980.63 8.98530
1980.66 9.65486
1980.70 10.3616
1980.73 11.1061
1980.77 11.8660
1980.80 12.6861
1980.83 13.5197
1980.87 14.4159
1980.90 15.3230
1980.94 16.2941
1980.97 17.2730
1981.04 19.3632
1981.11 21.5838
1981.18 23.9209
1981.26 26.9332
1981.35 30.0534
1981.52 36.4090
1981.64 40.6644
1981.70 42.7081
1981.75 44.6203
1981.82 46.5924
1981.88 48.3654
1981.94 49.8517
1982.00 51.1294
1982.07 52.4695
1982.13 53.2876
1982.18 53.8059
1982.23 54.1134
1982.28 54.2918
1982.30 54.3070
1982.34 54.2571
1982.39 54.0470
1982.43 53.6840
1982.48 53.1686
1982.53 52.4264
1982.58 51.5874
1982.63 50.6303
1982.67 49.5228
1982.72 48.3204
1982.80 46.0942
1982.88 43.6563
1982.97 40.3946
1983.07 36.9434
1983.25 30.1834
1983.34 26.8805
1983.43 23.6993
1983.50 21.2096
1983.57 18.8874
1983.61 17.7664
1983.65 16.7138
1983.68 15.6725
1983.72 14.6995
1983.76 13.7415
1983.79 12.8265
1983.83 11.9545
1983.87 11.1474
1983.90 10.3599
1983.94 9.63418
1983.98 8.92921
1984.01 8.28229
1984.05 7.68934
1984.08 7.14641
1984.12 6.62055
1984.15 6.14078
1984.19 5.67774
1984.22 5.25675
1984.26 4.85182
1984.29 4.48490
1984.32 4.13315
1984.36 3.81545
1984.39 3.51184
1984.43 3.23848
1984.46 2.97804
1984.50 2.74424
1984.53 2.52213
1984.57 2.32331
1984.60 2.13494
1984.63 1.96676
1984.67 1.80783
1984.70 1.66628
1984.74 1.53283
1984.77 1.41424
1984.81 1.30266
1984.84 1.20369
1984.88 1.11075
1984.91 1.02846
1984.95 0.951283
1984.98 0.883038
1985.05 0.762641
1985.12 0.664416
1985.19 0.581944
1985.25 0.513768
1985.32 0.457325
1985.39 0.410469
1985.46 0.371420
1985.53 0.338713
1985.60 0.311145
1985.67 0.287743
1985.81 0.250426
1985.94 0.222128
1986.08 0.199883
1986.22 0.181929
1986.36 0.166809
1986.50 0.153895
1986.77 0.132874
1987.05 0.116248
1987.32 0.102832
1987.63 0.0904545
1987.94 0.0803469
1988.25 0.0719450
1988.56 0.0648751
1988.87 0.0588613
1989.18 0.0536964
1989.80 0.0453206
1990.42 0.0388714
1991.04 0.0338023
1991.66 0.0297520
1992.28 0.0264672
1993.25 0.0224451
1994.21 0.0193556
1995.18 0.0169378
1996.14 0.0150168
1997.11 0.0134618
1998.07 0.0121863
2000.00 0.0102523
2001.53 0.00912272
2003.05 0.00821195
2004.58 0.00748053
2006.11 0.00688640
2009.16 0.00598266
2012.22 0.00533850
2015.27 0.00486043
2018.32 0.00449606
2024.43 0.00398554
2029.98 0.00368068
2035.54 0.00347316
2041.09 0.00334095
2046.64 0.00328462
2051.36 0.00333462
2053.72 0.00339751
2056.08 0.00353250
2058.44 0.00378308
2060.80 0.00424367
2061.98 0.00464497
2063.16 0.00525848
2063.75 0.00568850
2064.34 0.00624350
2064.93 0.00698287
2065.52 0.00800110
2066.07 0.00936330
2066.35 0.0102701
2066.63 0.0113957
2066.96 0.0131858
2067.12 0.0143815
2067.29 0.0159181
2067.45 0.0180076
2067.62 0.0210306
2067.70 0.0231004
2067.78 0.0256607
2067.86 0.0288931
2067.95 0.0330029
2068.03 0.0383254
2068.11 0.0450690
2068.19 0.0538273
2068.28 0.0649124
2068.36 0.0792460
2068.44 0.0972569
2068.52 0.120322
2068.61 0.148971
2068.69 0.185178
2068.77 0.229497
2068.85 0.284631
2068.94 0.351002
2069.02 0.432135
2069.10 0.528035
2069.18 0.641564
2069.22 0.705547
2069.26 0.774653
2069.33 0.905106
2069.40 1.04991
2069.47 1.21409
2069.54 1.39355
2069.61 1.59384
2069.68 1.80925
2069.75 2.04221
2069.82 2.29198
2069.89 2.56137
2069.96 2.84108
2070.03 3.13708
2070.10 3.43835
2070.37 4.67685
2070.47 5.08577
2070.57 5.46176
2070.61 5.63728
2070.66 5.80121
2070.71 5.95223
2070.76 6.08637
2070.83 6.26743
2070.90 6.40842
2070.95 6.46817
2070.99 6.51431
2071.03 6.55008
2071.06 6.56119
2071.09 6.56811
2071.10 6.56890
2071.13 6.56549
2071.16 6.55590
2071.19 6.53658
2071.24 6.48462
2071.30 6.40888
2071.35 6.31021
2071.40 6.18973
2071.46 6.04875
2071.51 5.88881
2071.57 5.71161
2071.64 5.44795
2071.71 5.16103
2071.78 4.85595
2071.86 4.53791
2072.15 3.23892
2072.23 2.91014
2072.30 2.59956
2072.38 2.30568
2072.45 2.03071
2072.53 1.77616
2072.61 1.54295
2072.68 1.33141
2072.76 1.14137
2072.83 0.970173
2072.91 0.821316
2072.99 0.691245
2073.06 0.578575
2073.14 0.481805
2073.21 0.399375
2073.29 0.329721
2073.37 0.271319
2073.43 0.229797
2073.49 0.194919
2073.56 0.164827
2073.62 0.139788
2073.68 0.118379
2073.75 0.100713
2073.81 0.0857241
2073.87 0.0734431
2073.94 0.0630875
2074.00 0.0546465
2074.07 0.0475577
2074.13 0.0417955
2074.19 0.0369624
2074.26 0.0330324
2074.38 0.0270699
2074.48 0.0236048
2074.59 0.0209877
2074.69 0.0189759
2074.79 0.0174099
2074.99 0.0150991
2075.19 0.0134627
2075.60 0.0112055
2076.01 0.00965552
2076.41 0.00851030
2076.82 0.00763182
2077.63 0.00638292
2078.44 0.00554558
2079.26 0.00495563
2080.07 0.00452512
2080.88 0.00420286
2082.00 0.00387300
2083.11 0.00362693
2085.35 0.00330684
2087.58 0.00308845
2089.81 0.00294381
2094.28 0.00275914
2098.75 0.00264955
2107.68 0.00252217
2116.61 0.00245034
2127.99 0.00239496
2139.36 0.00236275
2162.10 0.00234396
2181.59 0.00236914
2201.08 0.00244019
2210.83 0.00250222
2220.57 0.00259109
2230.32 0.00273272
2240.06 0.00296754
2247.17 0.00327279
2250.72 0.00351302
2254.28 0.00386016
2257.83 0.00439096
2259.61 0.00475032
2261.38 0.00523275
2263.16 0.00589451
2264.94 0.00682335
2266.71 0.00818233
2267.60 0.00909912
2268.49 0.0102620
2269.71 0.0124667
2270.32 0.0139489
2270.92 0.0157916
2271.53 0.0181240
2272.14 0.0211284
2272.75 0.0251182
2273.36 0.0306155
2273.67 0.0341985
2273.97 0.0385429
2274.28 0.0439454
2274.58 0.0508081
2274.88 0.0600269
2275.04 0.0660183
2275.19 0.0734746
2275.34 0.0831821
2275.49 0.0961735
2275.65 0.114350
2275.80 0.140608
2275.90 0.164896
2276.00 0.196287
2276.10 0.237783
2276.20 0.291550
2276.25 0.324635
2276.31 0.362420
2276.36 0.405513
2276.41 0.453559
2276.46 0.509198
2276.51 0.572322
2276.56 0.643786
2276.61 0.722829
2276.66 0.813577
2276.71 0.915579
2276.76 1.02993
2276.81 1.15512
2276.86 1.29732
2276.91 1.45538
2276.97 1.63053
2277.02 1.82004
2277.07 2.03270
2277.12 2.26613
2277.17 2.52150
2277.22 2.79423
2277.27 3.09624
2277.32 3.42323
2277.37 3.77598
2277.42 4.14743
2277.47 4.52828
2277.52 4.93311
2277.57 5.36194
2277.61 5.80493
2277.66 6.28054
2277.71 6.76836
2277.76 7.28831
2277.80 7.81765
2277.85 8.37755
2277.90 8.95532
2277.99 10.1438
2278.18 12.6320
2278.36 14.9555
2278.45 16.0555
2278.54 17.0706
2278.63 18.0678
2278.68 18.5145
2278.73 18.9141
2278.79 19.3858
2278.86 19.7788
2278.93 20.1205
2278.97 20.2880
2279.01 20.3747
2279.04 20.4344
2279.09 20.4718
2279.10 20.4736
2279.14 20.4534
2279.18 20.4049
2279.22 20.3170
2279.27 20.1531
2279.32 19.9029
2279.37 19.6160
2279.42 19.2754
2279.50 18.6489
2279.58 17.9239
2279.65 17.2058
2279.72 16.4268
2279.79 15.5981
2279.86 14.7314
2280.13 11.0949
2280.20 10.2019
2280.27 9.33183
2280.34 8.49189
2280.41 7.68808
2280.49 6.81831
2280.53 6.41047
2280.57 6.01756
2280.61 5.63046
2280.65 5.26883
2280.68 4.92294
2280.72 4.59290
2280.76 4.27082
2280.80 3.97274
2280.84 3.69023
2280.88 3.42306
2280.92 3.17094
2280.96 2.93352
2281.00 2.71042
2281.04 2.50120
2281.08 2.30054
2281.12 2.11796
2281.15 1.94778
2281.19 1.78945
2281.23 1.63879
2281.27 1.50278
2281.31 1.37696
2281.35 1.26076
2281.39 1.15101
2281.43 1.05264
2281.47 0.962269
2281.51 0.879381
2281.55 0.803475
2281.59 0.734071
2281.66 0.612935
2281.72 0.541400
2281.77 0.479819
2281.82 0.425857
2281.88 0.378667
2281.93 0.337472
2281.98 0.301566
2282.09 0.243124
2282.19 0.198971
2282.30 0.165628
2282.41 0.140377
2282.51 0.121134
2282.62 0.106320
2282.72 0.0947588
2282.83 0.0855846
2282.94 0.0781664
2283.15 0.0669042
2283.36 0.0586655
2283.57 0.0522367
2283.79 0.0470511
2284.21 0.0390530
2284.63 0.0331415
2285.06 0.0286045
2285.65 0.0238275
2286.24 0.0202832
2286.83 0.0175744
2287.42 0.0154578
2288.01 0.0137714
2288.60 0.0124108
2289.78 0.0103556
2290.96 0.00888665
2292.14 0.00780797
2293.32 0.00699461
2294.50 0.00636776
2296.79 0.00551517
2299.07 0.00493242
2301.36 0.00452735
2303.65 0.00424927
2308.22 0.00387229
2312.80 0.00365786
2317.37 0.00353448
2321.94 0.00346624
2331.09 0.00342655
2344.07 0.00349319
2357.06 0.00364460
2370.04 0.00386061
2383.03 0.00414044
2397.78 0.00455041
2405.16 0.00479055
2412.53 0.00506850
2419.91 0.00538527
2427.29 0.00574878
2430.98 0.00594950
2434.66 0.00616547
2438.35 0.00639891
2442.04 0.00664765
2445.29 0.00688476
2448.53 0.00713877
2451.78 0.00741137
2453.40 0.00755522
2455.03 0.00770446
2456.65 0.00785927
2458.27 0.00802001
2459.89 0.00818703
2461.52 0.00836053
2463.14 0.00854092
2464.76 0.00872867
2466.39 0.00892399
2468.01 0.00912672
2469.78 0.00935791
2471.55 0.00960040
2472.44 0.00972599
2473.32 0.00985440
2474.21 0.00998587
2475.09 0.0101205
2475.90 0.0102469
2476.71 0.0103759
2477.53 0.0105080
2478.34 0.0106429
2479.15 0.0107811
2479.96 0.0109223
2481.58 0.0112148
2483.21 0.0115213
2484.83 0.0118427
2486.45 0.0121798
2488.08 0.0125340
2489.70 0.0129062
2491.32 0.0132977
2492.94 0.0137100
2493.76 0.0139245
2494.57 0.0141445
2495.38 0.0143707
2496.19 0.0146029
2497.00 0.0148417
2497.81 0.0150869
2498.63 0.0153393
2499.44 0.0155985
2500.25 0.0158652
2501.06 0.0161395
2501.87 0.0164223
2502.68 0.0167131
2503.49 0.0170129
2504.30 0.0173213
2505.12 0.0176396
2505.93 0.0179672
2506.74 0.0183055
2507.55 0.0186539
2508.36 0.0190139
2509.17 0.0193850
2509.99 0.0197686
2510.80 0.0201643
2511.61 0.0205737
2512.42 0.0209963
2513.23 0.0214338
2514.04 0.0218858
2514.85 0.0223541
2515.67 0.0228383
2516.48 0.0233404
2517.29 0.0238599
2518.10 0.0243990
2518.91 0.0249574
2519.72 0.0255375
2520.53 0.0261387
2521.35 0.0267639
2522.16 0.0274125
2522.97 0.0280876
2523.78 0.0287888
2524.59 0.0295193
2525.40 0.0302789
2526.22 0.0310711
2527.03 0.0318957
2527.80 0.0327167
2528.58 0.0335717
2529.35 0.0344627
2530.13 0.0353905
2530.90 0.0363596
2531.67 0.0373699
2532.45 0.0384266
2533.22 0.0395297
2534.00 0.0406849
2534.77 0.0418940
2535.55 0.0431604
2536.32 0.0444860
2537.10 0.0458779
2537.87 0.0473361
2538.65 0.0488682
2539.42 0.0504765
2540.23 0.0522558
2541.04 0.0541339
2541.86 0.0561221
2542.67 0.0582233
2543.48 0.0604518
2544.29 0.0628121
2545.10 0.0653179
2545.91 0.0679814
2546.72 0.0708198
2547.53 0.0738411
2548.35 0.0770695
2549.16 0.0805155
2549.97 0.0842085
2550.78 0.0881628
2551.59 0.0924141
2552.40 0.0969815
2553.22 0.101909
2554.03 0.107223
2554.84 0.112979
2555.65 0.119211
2556.46 0.125990
2557.27 0.133364
2558.08 0.141424
2558.90 0.150235
2559.30 0.154962
2559.71 0.159918
2560.11 0.165119
2560.52 0.170565
2560.92 0.176302
2561.33 0.182337
2561.74 0.188688
2562.14 0.195363
2562.55 0.202418
2562.95 0.209865
2563.36 0.217733
2563.76 0.226032
2564.17 0.234839
2564.58 0.244172
2564.98 0.254074
2565.39 0.264563
2565.90 0.278921
2566.42 0.294440
2566.94 0.311318
2567.45 0.329648
2567.97 0.349687
2568.49 0.371569
2569.00 0.395568
2569.52 0.421959
2569.92 0.444612
2570.33 0.469123
2570.74 0.495697
2571.14 0.524493
2571.55 0.555920
2571.95 0.590214
2572.36 0.627729
2572.76 0.668763
2573.17 0.713986
2573.58 0.763847
2573.78 0.790711
2573.98 0.818980
2574.19 0.848750
2574.39 0.879967
2574.59 0.913052
2574.79 0.947978
2575.00 0.984875
2575.20 1.02369
2575.40 1.06497
2575.60 1.10869
2575.81 1.15503
2576.01 1.20396
2576.34 1.29103
2576.51 1.33795
2576.67 1.38732
2576.84 1.43930
2577.01 1.49407
2577.17 1.55180
2577.34 1.61269
2577.50 1.67695
2577.67 1.74480
2577.84 1.81649
2578.00 1.89228
2578.17 1.97243
2578.33 2.05723
2578.50 2.14700
2578.67 2.24205
2578.87 2.36595
2579.07 2.49889
2579.27 2.64154
2579.48 2.79458
2579.68 2.95868
2579.88 3.13451
2580.09 3.32270
2580.29 3.52278
2580.52 3.76891
2580.75 4.03171
2580.98 4.31351
2581.21 4.61145
2581.45 4.92702
2581.68 5.25572
2582.14 5.94625
2582.76 6.87502
2583.06 7.31149
2583.37 7.70341
2583.52 7.87781
2583.68 8.03426
2583.83 8.17060
2583.99 8.28421
2584.14 8.37487
2584.29 8.44041
2584.45 8.47980
2584.60 8.49243
2584.81 8.46766
2584.97 8.41263
2585.14 8.32737
2585.31 8.21341
2585.47 8.07367
2585.64 7.90886
2585.81 7.72362
2585.97 7.51863
2586.14 7.29935
2586.47 6.82501
2586.80 6.32402
2587.47 5.32080
2587.78 4.87648
2588.09 4.46029
2588.41 4.07338
2588.56 3.89198
2588.72 3.71978
2588.87 3.55450
2589.03 3.39713
2589.18 3.24750
2589.34 3.10627
2589.50 2.97134
2589.65 2.84337
2589.81 2.72206
2589.96 2.60782
2590.12 2.49684
2590.28 2.39181
2590.44 2.29241
2590.60 2.19835
2590.76 2.10930
2590.92 2.02499
2591.08 1.94514
2591.23 1.86949
2591.39 1.79779
2591.55 1.72979
2591.87 1.60406
2592.19 1.49069
2592.51 1.38854
2592.82 1.29572
2593.14 1.21147
2593.46 1.13483
2593.78 1.06495
2594.10 1.00111
2594.41 0.942665
2594.73 0.889041
2595.05 0.839748
2595.30 0.804308
2595.54 0.771016
2595.79 0.739707
2596.03 0.710347
2596.28 0.682558
2596.52 0.656338
2596.77 0.631572
2597.02 0.608247
2597.51 0.565078
2598.00 0.526346
2598.49 0.491408
2598.98 0.459795
2599.30 0.440905
2599.62 0.423145
2599.93 0.406428
2600.25 0.390676
2600.57 0.375815
2600.89 0.361782
2601.52 0.335965
2602.16 0.312805
2602.80 0.291954
2603.43 0.273117
2604.07 0.256045
2604.70 0.240527
2605.34 0.226379
2605.98 0.213448
2606.61 0.201597
2607.25 0.190712
2607.88 0.180694
2608.52 0.171458
2609.16 0.162938
2609.79 0.155031
2610.43 0.147686
2611.06 0.140850
2611.70 0.134479
2612.34 0.128535
2612.97 0.122982
2613.61 0.117785
2614.24 0.112924
2615.51 0.104064
2616.79 0.0962255
2618.06 0.0892574
2619.33 0.0830408
2620.60 0.0774633
2621.87 0.0724444
2623.15 0.0679123
2624.42 0.0638062
2625.69 0.0600745
2626.96 0.0566734
2628.23 0.0535651
2629.50 0.0507192
2631.47 0.0467649
2633.44 0.0432832
2635.40 0.0402080
2637.37 0.0374602
2639.33 0.0350018
2641.30 0.0327973
2643.26 0.0308113
2645.23 0.0290180
2647.77 0.0269427
2650.32 0.0251067
2652.86 0.0234750
2655.40 0.0220195
2657.95 0.0207151
2660.49 0.0195431
2663.04 0.0184857
2665.58 0.0175296
2669.28 0.0162945
2672.98 0.0152172
2676.68 0.0142758
2680.38 0.0134474
2684.08 0.0127128
2687.78 0.0120618
2691.48 0.0114833
2695.18 0.0109681
2700.26 0.0103493
2705.35 0.00981750
2710.44 0.00936046
2715.53 0.00896852
2720.61 0.00863065
2725.70 0.00834184
2730.79 0.00809545
2735.87 0.00788605
2740.50 0.00772549
2745.12 0.00759375
2749.75 0.00747985
2754.37 0.00739169
2759.00 0.00731765
2763.62 0.00726671
2772.87 0.00721264
2779.28 0.00721569
2785.68 0.00724932
2792.08 0.00731200
2798.48 0.00740335
2804.89 0.00752381
2811.29 0.00767512
2817.69 0.00786347
2820.89 0.00801866
2821.69 0.00828300
2822.09 0.00874346
2822.49 0.00975773
2822.69 0.0105835
2822.89 0.0116743
2823.09 0.0130490
2823.29 0.0146958
2824.09 0.0223339
2824.21 0.0232219
2824.57 0.0249497
2824.66 0.0250786
2824.70 0.0250912
2824.77 0.0250544
2824.89 0.0248180
2825.15 0.0235670
2825.51 0.0205582
2825.87 0.0169759
2826.24 0.0137025
2826.60 0.0112661
2826.78 0.0103922
2826.96 0.00972765
2827.33 0.00889968
2827.69 0.00851294
2828.05 0.00835670
2828.83 0.00829168
2829.61 0.00830618
2831.17 0.00835872
2834.28 0.00849205
2840.51 0.00879051
2846.74 0.00913366
2852.97 0.00952274
2859.20 0.00995935
2862.32 0.0102002
2865.43 0.0104563
2868.55 0.0107284
2871.66 0.0110177
2874.78 0.0113253
2877.89 0.0116525
2880.38 0.0119292
2882.87 0.0122189
2885.37 0.0125250
2887.86 0.0128471
2890.35 0.0131862
2892.84 0.0135434
2895.33 0.0139199
2897.83 0.0143168
2899.69 0.0146289
2901.56 0.0149540
2903.43 0.0152929
2905.30 0.0156461
2907.17 0.0160145
2908.11 0.0162047
2909.04 0.0163986
2909.97 0.0165969
2910.91 0.0167994
2911.84 0.0170068
2912.78 0.0172185
2913.40 0.0173624
2914.02 0.0175084
2914.65 0.0176565
2915.27 0.0178069
2915.79 0.0179342
2916.31 0.0180628
2916.83 0.0181931
2917.35 0.0183250
2917.87 0.0184586
2918.38 0.0185938
2919.42 0.0188696
2920.46 0.0191528
2921.50 0.0194431
2922.54 0.0197412
2923.58 0.0200473
2925.03 0.0204904
2926.48 0.0209500
2927.94 0.0214269
2929.39 0.0219215
2930.84 0.0224359
2932.30 0.0229711
2933.75 0.0235285
2935.20 0.0241083
2936.35 0.0245809
2937.49 0.0250689
2938.63 0.0255731
2939.77 0.0260942
2940.91 0.0266330
2942.06 0.0271901
2943.20 0.0277666
2944.34 0.0283632
2945.48 0.0289815
2946.63 0.0296213
2947.77 0.0302843
2948.91 0.0309716
2950.05 0.0316849
2951.19 0.0324244
2952.34 0.0331919
2953.48 0.0339889
2954.62 0.0348169
2955.76 0.0356776
2956.90 0.0365726
2958.05 0.0375038
2959.19 0.0384731
2960.33 0.0394828
2961.47 0.0405349
2962.61 0.0416319
2963.76 0.0427774
2964.90 0.0439722
2966.04 0.0452202
2967.18 0.0465247
2968.33 0.0478890
2969.47 0.0493168
2970.61 0.0508122
2971.75 0.0523795
2972.89 0.0540248
2974.04 0.0557502
2975.18 0.0575627
2976.32 0.0594681
2977.46 0.0614730
2978.60 0.0635843
2979.75 0.0658096
2980.89 0.0681574
2982.03 0.0706389
2983.17 0.0732598
2984.32 0.0760332
2985.46 0.0789709
2986.60 0.0820864
2987.74 0.0853941
2988.88 0.0889101
2990.03 0.0926522
2991.17 0.0966438
2992.31 0.100900
2993.45 0.105448
2994.59 0.110316
2995.74 0.115533
2996.88 0.121135
2998.02 0.127160
2999.16 0.133650
3000.31 0.140662
3001.45 0.148239
3002.59 0.156450
3003.73 0.165368
3004.87 0.175075
3005.44 0.180254
3006.02 0.185667
3006.59 0.191328
3007.16 0.197253
3007.73 0.203458
3008.30 0.209962
3008.87 0.216782
3009.44 0.223941
3010.01 0.231460
3010.58 0.239364
3011.15 0.247679
3011.73 0.256435
3012.30 0.265661
3012.87 0.275394
3013.44 0.285669
3014.01 0.296527
3014.58 0.308012
3015.15 0.320174
3015.72 0.333065
3016.29 0.346741
3016.86 0.361265
3017.44 0.376701
3018.06 0.394677
3018.68 0.413953
3019.30 0.434666
3019.93 0.456966
3020.55 0.481009
3021.17 0.506972
3021.80 0.535057
3022.42 0.565492
3022.99 0.595729
3023.56 0.628339
3024.13 0.663630
3024.70 0.701893
3025.28 0.743459
3025.85 0.788703
3026.42 0.838052
3026.99 0.891995
3027.56 0.951088
3028.13 1.01597
3028.70 1.08737
3028.99 1.12585
3029.27 1.16614
3029.56 1.20865
3029.84 1.25323
3030.13 1.30033
3030.41 1.34977
3030.70 1.40206
3030.99 1.45702
3031.27 1.51522
3031.56 1.57646
3031.84 1.64139
3032.13 1.71001
3032.41 1.78260
3032.70 1.85913
3032.99 1.94041
3033.27 2.02617
3033.56 2.11733
3033.84 2.21357
3034.13 2.31589
3034.41 2.42394
3034.70 2.53883
3034.98 2.66011
3035.27 2.78900
3035.55 2.92494
3035.84 3.06921
3036.13 3.22112
3036.41 3.37853
3036.68 3.54362
3036.96 3.71768
3037.24 3.89950
3037.52 4.09029
3037.80 4.28844
3038.36 4.70701
3038.92 5.15076
3039.48 5.60801
3040.04 6.06545
3040.59 6.50171
3040.91 6.72951
3041.22 6.93826
3041.53 7.12424
3041.85 7.28313
3042.16 7.41138
3042.47 7.50486
3042.79 7.56155
3043.10 7.57988
3043.46 7.55307
3043.75 7.49445
3044.04 7.40425
3044.33 7.28455
3044.62 7.13800
3044.91 6.96773
3045.21 6.77719
3045.50 6.56997
3045.79 6.34970
3046.37 5.88383
3046.95 5.40480
3047.53 4.93268
3048.11 4.48263
3048.67 4.08231
3048.94 3.89416
3049.22 3.71415
3049.50 3.54174
3049.77 3.37815
3050.05 3.22264
3050.32 3.07501
3050.60 2.93454
3050.88 2.80196
3051.15 2.67647
3051.43 2.55773
3051.71 2.44504
3051.98 2.33888
3052.26 2.23850
3052.53 2.14360
3052.82 2.05164
3053.10 1.96479
3053.38 1.88274
3053.67 1.80519
3053.95 1.73188
3054.23 1.66253
3054.52 1.59692
3054.80 1.53500
3055.08 1.47614
3055.36 1.42035
3055.93 1.31725
3056.50 1.22432
3057.06 1.14050
3057.63 1.06445
3058.19 0.995413
3058.76 0.932604
3059.32 0.875425
3059.89 0.823072
3060.46 0.775124
3061.02 0.731119
3061.59 0.690722
3062.02 0.661609
3062.46 0.634320
3062.90 0.608655
3063.34 0.584492
3063.77 0.561665
3064.21 0.540168
3064.65 0.519849
3065.08 0.500624
3065.96 0.465124
3066.83 0.433232
3067.71 0.404462
3068.58 0.378429
3069.15 0.362872
3069.71 0.348244
3070.28 0.334473
3070.84 0.321518
3071.41 0.309272
3071.98 0.297708
3072.54 0.286774
3073.11 0.276445
3074.24 0.257352
3075.37 0.240173
3076.50 0.224638
3077.63 0.210569
3078.77 0.197768
3079.90 0.186096
3081.03 0.175427
3082.16 0.165658
3083.29 0.156676
3084.42 0.148413
3085.56 0.140789
3086.69 0.133762
3087.82 0.127246
3088.95 0.121186
3090.08 0.115541
3091.21 0.110287
3092.34 0.105382
3093.48 0.100803
3095.74 0.0925016
3098.00 0.0851950
3100.26 0.0787312
3102.53 0.0729863
3104.79 0.0678581
3107.05 0.0632604
3109.32 0.0591267
3111.58 0.0553959
3113.84 0.0520183
3116.11 0.0489519
3118.37 0.0461610
3120.63 0.0436153
3122.90 0.0412893
3125.16 0.0391613
3127.42 0.0372136
3129.68 0.0354322
3131.95 0.0338071
3134.21 0.0323338
3136.47 0.0310152
3138.74 0.0298679
3141.00 0.0289349
3142.65 0.0284410
3144.29 0.0282012
3146.14 0.0285026
3147.07 0.0290879
3147.99 0.0302429
3148.92 0.0325495
3149.38 0.0347483
3149.62 0.0365283
3149.85 0.0392497
3150.08 0.0437728
3150.19 0.0471591
3150.31 0.0516263
3150.43 0.0576498
3150.54 0.0657212
3150.66 0.0765200
3150.77 0.0907692
3150.89 0.109792
3151.00 0.134814
3151.12 0.167445
3151.24 0.209185
3151.35 0.262957
3151.47 0.330293
3151.58 0.415113
3151.70 0.518863
3151.76 0.579566
3151.81 0.646398
3151.87 0.719738
3151.93 0.799952
3151.99 0.887392
3152.05 0.982384
3152.10 1.08522
3152.16 1.19418
3152.22 1.31330
3152.28 1.44089
3152.33 1.57705
3152.39 1.72183
3152.45 1.87516
3152.51 2.03694
3152.57 2.20695
3152.62 2.38174
3152.68 2.56707
3152.74 2.75942
3152.86 3.16270
3152.97 3.58550
3153.09 4.01637
3153.32 4.88377
3153.43 5.29523
3153.55 5.67360
3153.64 5.94206
3153.73 6.18073
3153.82 6.38504
3153.91 6.55096
3153.97 6.64499
3154.04 6.71531
3154.11 6.76606
3154.14 6.78130
3154.17 6.78801
3154.20 6.79021
3154.23 6.78819
3154.25 6.78344
3154.28 6.77063
3154.33 6.74205
3154.42 6.64771
3154.48 6.56866
3154.53 6.47515
3154.59 6.36661
3154.64 6.24385
3154.71 6.07644
3154.78 5.89109
3154.85 5.68978
3154.91 5.47787
3155.05 5.01472
3155.18 4.52586
3155.41 3.66824
3155.52 3.24979
3155.63 2.84875
3155.69 2.65673
3155.75 2.47123
3155.81 2.29277
3155.86 2.12177
3155.92 1.95859
3155.98 1.80345
3156.03 1.65652
3156.09 1.51788
3156.15 1.38754
3156.20 1.26545
3156.26 1.15148
3156.32 1.04546
3156.38 0.947177
3156.43 0.856368
3156.49 0.772745
3156.55 0.695989
3156.60 0.625764
3156.66 0.561716
3156.77 0.450705
3156.89 0.360039
3157.00 0.287428
3157.13 0.221726
3157.26 0.171618
3157.39 0.133898
3157.52 0.106022
3157.65 0.0853130
3157.78 0.0701935
3157.91 0.0592211
3158.04 0.0513332
3158.17 0.0455681
3158.30 0.0413690
3158.43 0.0382772
3158.56 0.0359786
3158.82 0.0328249
3159.08 0.0307808
3159.60 0.0281629
3160.11 0.0264233
3161.15 0.0241066
3162.19 0.0225891
3163.23 0.0215002
3165.30 0.0199838
3168.44 0.0184612
3171.59 0.0173412
3174.73 0.0164209
3177.88 0.0156269
3184.16 0.0142806
3190.45 0.0131455
3195.98 0.0122822
3201.52 0.0115162
3207.05 0.0108325
3212.58 0.0102200
3218.11 0.00966631
3223.65 0.00916584
3229.18 0.00871129
3234.71 0.00829663
3244.77 0.00763648
3254.83 0.00706976
3264.89 0.00657935
3274.95 0.00615486
3285.01 0.00578876
3295.07 0.00546923
3305.13 0.00518863
3315.19 0.00494321
3329.27 0.00465372
3343.35 0.00441949
3357.44 0.00424187
3371.52 0.00414291
3379.32 0.00415702
3387.11 0.00429421
3391.01 0.00447183
3394.91 0.00481797
3396.86 0.00510112
3398.81 0.00554786
3400.75 0.00626375
3401.73 0.00680657
3402.70 0.00754979
3403.33 0.00818338
3403.96 0.00898913
3404.59 0.0100395
3405.22 0.0114514
3405.85 0.0134402
3406.16 0.0147746
3406.48 0.0164667
3406.79 0.0187687
3407.11 0.0222170
3407.26 0.0247298
3407.42 0.0281194
3407.58 0.0328207
3407.73 0.0394783
3407.88 0.0485251
3407.96 0.0543829
3408.03 0.0612622
3408.11 0.0695578
3408.18 0.0794290
3408.26 0.0911569
3408.33 0.104861
3408.41 0.121273
3408.48 0.140632
3408.56 0.163396
3408.63 0.189692
3408.71 0.220785
3408.78 0.256439
3408.85 0.298272
3408.93 0.345857
3409.00 0.401222
3409.08 0.464556
3409.15 0.536675
3409.23 0.617255
3409.30 0.709301
3409.38 0.812617
3409.45 0.928002
3409.53 1.05441
3409.60 1.19592
3409.68 1.35152
3409.75 1.52167
3409.83 1.70412
3409.90 1.90399
3409.97 2.11590
3410.05 2.34534
3410.12 2.58574
3410.19 2.80086
3410.25 3.02499
3410.31 3.25742
3410.38 3.49729
3410.50 3.99529
3410.63 4.50535
3410.88 5.53477
3411.00 6.02275
3411.13 6.47006
3411.21 6.73983
3411.29 6.98046
3411.38 7.19420
3411.46 7.37269
3411.53 7.50516
3411.61 7.60530
3411.69 7.67725
3411.73 7.70209
3411.77 7.71336
3411.80 7.71550
3411.84 7.71151
3411.87 7.70220
3411.91 7.67810
3411.98 7.61993
3412.05 7.53567
3412.11 7.42800
3412.19 7.26850
3412.27 7.08041
3412.35 6.86448
3412.42 6.62363
3412.52 6.30119
3412.61 5.95254
3412.71 5.58394
3412.80 5.20581
3412.99 4.42913
3413.09 4.04171
3413.18 3.66689
3413.25 3.39579
3413.32 3.13318
3413.39 2.88035
3413.46 2.64171
3413.53 2.41118
3413.60 2.19295
3413.67 1.98747
3413.74 1.79764
3413.81 1.61808
3413.88 1.45156
3413.95 1.29789
3414.02 1.15869
3414.09 1.02952
3414.16 0.913575
3414.23 0.806950
3414.30 0.712094
3414.37 0.625615
3414.44 0.548292
3414.51 0.479445
3414.58 0.419217
3414.65 0.365202
3414.71 0.318318
3414.78 0.276590
3414.85 0.240636
3414.92 0.208865
3414.99 0.181312
3415.06 0.157495
3415.13 0.137242
3415.20 0.119567
3415.27 0.104620
3415.34 0.0916391
3415.41 0.0807099
3415.53 0.0650483
3415.66 0.0532788
3415.78 0.0444469
3415.90 0.0378562
3416.02 0.0328326
3416.15 0.0290340
3416.27 0.0260785
3416.39 0.0237807
3416.64 0.0204364
3416.88 0.0181283
3417.13 0.0164090
3417.37 0.0150496
3417.86 0.0129802
3418.35 0.0114592
3418.84 0.0102901
3419.33 0.00936800
3420.31 0.00802126
3421.29 0.00709852
3422.27 0.00642872
3423.25 0.00592605
3425.04 0.00528872
3426.82 0.00487656
3430.39 0.00436266
3433.95 0.00406874
3437.52 0.00388348
3444.65 0.00366528
3451.78 0.00354065
3470.32 0.00337273
3488.86 0.00329029
3507.41 0.00324662
3525.95 0.00322830
3541.64 0.00323035
3557.32 0.00324515
3573.01 0.00327270
3588.70 0.00331353
3604.39 0.00336624
3620.08 0.00343289
3635.77 0.00351350
3651.46 0.00360848
3661.44 0.00367811
3671.43 0.00375523
3681.41 0.00384029
3686.40 0.00388486
3691.39 0.00393268
3696.38 0.00398307
3701.38 0.00403612
3706.37 0.00409201
3711.36 0.00415094
3716.35 0.00421321
3721.34 0.00427922
3726.34 0.00434954
3731.33 0.00442485
3735.25 0.00448844
3739.17 0.00455699
3743.09 0.00463184
3747.02 0.00471541
3750.94 0.00481197
3754.86 0.00493004
3758.78 0.00508829
3762.71 0.00533629
3765.56 0.00565808
3768.41 0.00628652
3769.84 0.00691126
3770.55 0.00741767
3771.26 0.00818889
3771.62 0.00877880
3771.98 0.00968788
3772.16 0.0103832
3772.33 0.0113567
3772.51 0.0127743
3772.69 0.0148890
3772.78 0.0163391
3772.87 0.0181066
3772.96 0.0202835
3773.05 0.0229625
3773.14 0.0262540
3773.22 0.0302883
3773.31 0.0352185
3773.40 0.0412218
3773.49 0.0485926
3773.58 0.0574025
3773.67 0.0679890
3773.76 0.0806468
3773.85 0.0957010
3773.94 0.113507
3774.03 0.134449
3774.12 0.158934
3774.25 0.203429
3774.38 0.258435
3774.52 0.325454
3774.65 0.405243
3774.74 0.467348
3774.83 0.535544
3774.92 0.610683
3775.01 0.692873
3775.10 0.782104
3775.19 0.878239
3775.27 0.980998
3775.36 1.08995
3775.45 1.20580
3775.54 1.32522
3775.72 1.57461
3775.90 1.83007
3776.08 2.08015
3776.22 2.26476
3776.36 2.43063
3776.43 2.50566
3776.50 2.57402
3776.57 2.63505
3776.63 2.68743
3776.73 2.74860
3776.83 2.79120
3776.92 2.81195
3776.96 2.81699
3776.99 2.81861
3777.00 2.81865
3777.02 2.81834
3777.03 2.81753
3777.07 2.81382
3777.14 2.79864
3777.23 2.76491
3777.32 2.71613
3777.43 2.63776
3777.54 2.54105
3777.65 2.42768
3777.76 2.30024
3777.91 2.10386
3778.06 1.89352
3778.36 1.46337
3778.51 1.25575
3778.66 1.06210
3778.81 0.883595
3778.96 0.725015
3779.09 0.600982
3779.23 0.493395
3779.36 0.400158
3779.49 0.321793
3779.62 0.255924
3779.76 0.202179
3779.89 0.158284
3780.02 0.123453
3780.15 0.0957624
3780.29 0.0743529
3780.42 0.0577484
3780.55 0.0452073
3780.68 0.0356895
3780.82 0.0286405
3780.95 0.0234145
3781.08 0.0195626
3781.21 0.0167149
3781.34 0.0146426
3781.48 0.0131069
3781.61 0.0119778
3781.87 0.0104808
3782.14 0.00958087
3782.67 0.00854977
3783.20 0.00793934
3783.97 0.00735497
3784.74 0.00696359
3786.28 0.00649173
3789.36 0.00608048
3792.45 0.00592980
3793.99 0.00590034
3795.53 0.00589086
3797.07 0.00589390
3798.51 0.00590486
3799.96 0.00592186
3801.40 0.00594366
3802.85 0.00596937
3804.29 0.00599834
3805.74 0.00603010
3808.63 0.00610092
3811.52 0.00617916
3814.41 0.00626387
3817.30 0.00635448
3820.19 0.00645055
3823.46 0.00656588
3826.74 0.00668800
3830.01 0.00681705
3831.65 0.00688429
3833.29 0.00695334
3834.92 0.00702434
3836.56 0.00709732
3838.20 0.00717225
3839.84 0.00724922
3841.47 0.00732876
3843.11 0.00741077
3844.75 0.00749549
3846.39 0.00758305
3848.51 0.00770119
3850.63 0.00782541
3852.74 0.00795694
3854.86 0.00809752
3856.98 0.00824989
3859.10 0.00841860
3861.22 0.00861180
3863.34 0.00884554
3865.84 0.00922585
3868.35 0.00989639
3869.60 0.0105385
3870.23 0.0110949
3870.54 0.0115413
3870.85 0.0122643
3871.17 0.0135945
3871.32 0.0146937
3871.48 0.0162556
3871.64 0.0185119
3871.79 0.0217229
3871.95 0.0263227
3872.11 0.0327638
3872.26 0.0417886
3872.42 0.0540950
3872.58 0.0708289
3872.73 0.0929177
3872.89 0.121932
3873.04 0.158866
3873.20 0.205578
3873.36 0.262754
3873.45 0.304192
3873.55 0.349876
3873.65 0.400872
3873.74 0.456158
3873.84 0.516819
3873.94 0.581431
3874.13 0.723024
3874.32 0.878535
3874.51 1.04047
3874.71 1.20277
3874.90 1.35477
3875.01 1.43735
3875.13 1.51054
3875.24 1.57378
3875.36 1.62437
3875.46 1.65832
3875.56 1.68082
3875.64 1.69041
3875.68 1.69209
3875.70 1.69223
3875.73 1.69162
3875.78 1.68836
3875.88 1.67244
3876.03 1.63133
3876.17 1.57000
3876.27 1.51023
3876.38 1.44110
3876.54 1.32709
3876.70 1.20165
3877.01 0.936950
3877.17 0.807080
3877.32 0.684018
3877.48 0.570574
3877.64 0.469256
3877.80 0.376626
3877.96 0.298225
3878.12 0.232999
3878.29 0.179977
3878.45 0.137619
3878.61 0.104956
3878.77 0.0801780
3878.85 0.0702893
3878.93 0.0618391
3879.02 0.0545878
3879.10 0.0485629
3879.26 0.0393728
3879.42 0.0332251
3879.58 0.0293499
3879.75 0.0271359
3879.91 0.0261055
3880.07 0.0258887
3880.23 0.0261991
3880.69 0.0281606
3881.14 0.0294823
3881.25 0.0295159
3881.30 0.0294862
3881.36 0.0294155
3881.50 0.0290903
3881.93 0.0268231
3882.36 0.0232432
3882.79 0.0193502
3883.21 0.0160189
3883.64 0.0136387
3884.07 0.0121951
3884.50 0.0114303
3884.93 0.0110726
3886.13 0.0108371
3889.12 0.0109073
3892.12 0.0111167
3895.12 0.0113901
3898.12 0.0117063
3901.11 0.0120566
3904.11 0.0124377
3907.11 0.0128491
3910.10 0.0132915
3911.75 0.0135488
3913.40 0.0138161
3915.05 0.0140942
3916.70 0.0143833
3918.35 0.0146842
3919.99 0.0149971
3921.64 0.0153228
3923.29 0.0156620
3924.94 0.0160156
3926.59 0.0163839
3928.24 0.0167682
3929.88 0.0171690
3931.53 0.0175877
3933.18 0.0180249
3934.83 0.0184819
3936.48 0.0189599
3938.13 0.0194606
3939.77 0.0199849
3941.42 0.0205348
3943.07 0.0211114
3944.72 0.0217172
3946.37 0.0223534
3948.02 0.0230227
3949.66 0.0237272
3951.31 0.0244700
3952.96 0.0252530
3954.61 0.0260802
3956.26 0.0269539
3957.91 0.0278789
3959.56 0.0288581
3961.20 0.0298965
3962.85 0.0309989
3964.80 0.0323928
3966.75 0.0338908
3968.70 0.0355017
3970.64 0.0372489
3972.59 0.0391438
3974.54 0.0412015
3976.49 0.0434411
3978.44 0.0458849
3980.09 0.0481320
3981.73 0.0505601
3983.38 0.0531924
3985.03 0.0560488
3986.68 0.0591595
3988.33 0.0625514
3989.98 0.0662615
3991.62 0.0703310
3993.27 0.0748105
3994.92 0.0797504
3995.75 0.0824176
3996.57 0.0852229
3997.39 0.0881798
3998.22 0.0912992
3999.04 0.0945974
3999.87 0.0980795
4000.69 0.101764
4001.51 0.105666
4002.34 0.109810
4003.16 0.114203
4003.99 0.118871
4004.81 0.123840
4005.94 0.131146
4007.06 0.139131
4008.18 0.147875
4009.31 0.157468
4010.43 0.168033
4011.56 0.179722
4012.12 0.186037
4012.68 0.192694
4013.24 0.199716
4013.80 0.207116
4014.63 0.218768
4015.45 0.231412
4016.28 0.245177
4017.10 0.260197
4017.92 0.276624
4018.75 0.294632
4019.57 0.314424
4020.40 0.336233
4021.22 0.360361
4022.04 0.387065
4022.46 0.401507
4022.87 0.416741
4023.28 0.432825
4023.69 0.449819
4024.11 0.467832
4024.52 0.486849
4024.93 0.506989
4025.34 0.528335
4025.75 0.550976
4026.17 0.575010
4026.58 0.600544
4026.99 0.627691
4027.40 0.656647
4027.81 0.687406
4028.23 0.720180
4028.64 0.755123
4029.05 0.792403
4029.46 0.832197
4029.87 0.874693
4030.29 0.920094
4030.70 0.968610
4031.11 1.02046
4031.52 1.07587
4031.93 1.13507
4032.35 1.19829
4032.76 1.26575
4033.17 1.33765
4033.58 1.41417
4033.97 1.49019
4034.35 1.57025
4034.74 1.65457
4035.12 1.74311
4035.51 1.83571
4035.89 1.93212
4036.66 2.13463
4038.20 2.55702
4038.97 2.75759
4039.36 2.84974
4039.74 2.93405
4040.31 3.03967
4040.59 3.08304
4040.87 3.11933
4041.15 3.14804
4041.44 3.16875
4041.72 3.18118
4042.00 3.18513
4042.37 3.17750
4042.73 3.15563
4043.10 3.12004
4043.47 3.07174
4043.83 3.01159
4044.20 2.94104
4044.57 2.86156
4044.93 2.77499
4045.67 2.58560
4046.40 2.38519
4047.13 2.18343
4047.87 1.98778
4048.52 1.82351
4049.17 1.67037
4049.82 1.52892
4050.14 1.46275
4050.47 1.39979
4050.79 1.33960
4051.12 1.28230
4051.44 1.22781
4051.76 1.17618
4052.09 1.12698
4052.41 1.08028
4052.74 1.03595
4053.06 0.994017
4053.39 0.953385
4053.72 0.914981
4054.06 0.878459
4054.39 0.843933
4054.72 0.811085
4055.05 0.780016
4055.71 0.722531
4056.37 0.670594
4057.03 0.623733
4057.69 0.581246
4058.35 0.542764
4059.01 0.507736
4059.67 0.475883
4060.33 0.446771
4060.99 0.420191
4061.65 0.395801
4062.31 0.373445
4062.97 0.352884
4063.63 0.333940
4064.17 0.319510
4064.71 0.306009
4065.25 0.293317
4065.79 0.281413
4066.33 0.270190
4066.87 0.259633
4067.41 0.249673
4067.95 0.240268
4068.50 0.231363
4069.04 0.222958
4070.12 0.207466
4071.20 0.193528
4072.28 0.180969
4072.94 0.173882
4073.60 0.167219
4074.26 0.160928
4074.92 0.155001
4075.58 0.149392
4076.24 0.144097
4077.56 0.134330
4078.88 0.125548
4080.20 0.117626
4081.52 0.110456
4082.84 0.103947
4084.17 0.0980209
4085.49 0.0926115
4086.81 0.0876610
4088.13 0.0831195
4089.45 0.0789439
4090.77 0.0750962
4092.09 0.0715435
4093.41 0.0682603
4094.61 0.0654867
4095.81 0.0628992
4097.01 0.0604738
4098.22 0.0581955
4099.42 0.0560559
4100.62 0.0540456
4101.82 0.0521546
4103.02 0.0503754
4104.22 0.0486967
4105.42 0.0471124
4106.62 0.0456159
4107.82 0.0442020
4109.02 0.0428627
4110.22 0.0415941
4112.62 0.0392509
4113.95 0.0380617
4115.27 0.0369373
4116.59 0.0358730
4117.91 0.0348649
4120.55 0.0330024
4123.19 0.0313239
4125.83 0.0298058
4128.48 0.0284296
4131.12 0.0271791
4133.76 0.0260407
4136.40 0.0250014
4139.04 0.0240512
4141.68 0.0231809
4144.33 0.0223829
4146.97 0.0216496
4149.61 0.0209751
4152.25 0.0203541
4154.89 0.0197819
4157.53 0.0192539
4160.18 0.0187665
4162.82 0.0183164
4165.46 0.0179008
4168.10 0.0175165
4170.74 0.0171613
4173.39 0.0168331
4176.03 0.0165301
4178.67 0.0162502
4181.31 0.0159919
4183.95 0.0157539
4186.59 0.0155347
4189.24 0.0153333
4191.88 0.0151486
4194.52 0.0149795
4197.16 0.0148252
4199.80 0.0146849
4202.45 0.0145578
4205.09 0.0144433
4207.73 0.0143409
4210.37 0.0142498
4211.69 0.0142085
4213.01 0.0141698
4214.33 0.0141337
4215.65 0.0141002
4216.98 0.0140693
4218.30 0.0140408
4219.50 0.0140171
4220.70 0.0139954
4221.90 0.0139756
4223.10 0.0139578
4224.30 0.0139419
4225.50 0.0139279
4226.70 0.0139158
4227.90 0.0139055
4229.22 0.0138964
4230.54 0.0138895
4231.87 0.0138848
4233.19 0.0138824
4234.51 0.0138821
4235.83 0.0138841
4237.15 0.0138882
4238.47 0.0138946
4239.79 0.0139032
4241.11 0.0139140
4242.43 0.0139272
4243.75 0.0139426
4245.07 0.0139604
4246.40 0.0139807
4247.72 0.0140034
4249.04 0.0140286
4250.24 0.0140538
4251.44 0.0140814
4252.64 0.0141113
4253.84 0.0141436
4255.04 0.0141786
4256.24 0.0142164
4257.44 0.0142571
4258.64 0.0143009
4259.96 0.0143531
4261.29 0.0144098
4262.61 0.0144715
4263.93 0.0145389
4265.25 0.0146127
4266.57 0.0146937
4267.89 0.0147832
4269.21 0.0148825
4270.53 0.0149937
4271.85 0.0151191
4273.17 0.0152619
4274.49 0.0154262
4275.81 0.0156183
4277.14 0.0158460
4278.46 0.0161211
4279.78 0.0164604
4281.22 0.0169352
4282.66 0.0175724
4284.10 0.0184596
4285.54 0.0197547
4286.98 0.0218363
4287.70 0.0234134
4288.42 0.0256042
4289.14 0.0288859
4289.50 0.0313130
4289.86 0.0348536
4290.04 0.0373893
4290.22 0.0407441
4290.40 0.0453444
4290.58 0.0518115
4290.76 0.0610595
4290.94 0.0744050
4291.03 0.0831678
4291.12 0.0936985
4291.21 0.106336
4291.30 0.121472
4291.46 0.153741
4291.61 0.196511
4291.76 0.252936
4291.91 0.326504
4291.98 0.370946
4292.06 0.421203
4292.13 0.477840
4292.21 0.541438
4292.28 0.612590
4292.36 0.691896
4292.43 0.779952
4292.51 0.877340
4292.58 0.986121
4292.66 1.10396
4292.73 1.23271
4292.81 1.37277
4292.88 1.52449
4292.96 1.68813
4293.03 1.86382
4293.11 2.05161
4293.18 2.25140
4293.26 2.46293
4293.33 2.68582
4293.41 2.91951
4293.48 3.16325
4293.56 3.41614
4293.71 3.94486
4294.14 5.54891
4294.25 5.93649
4294.36 6.30515
4294.47 6.64805
4294.58 6.95588
4294.65 7.14039
4294.72 7.30421
4294.79 7.44855
4294.86 7.57211
4294.93 7.67500
4295.00 7.75343
4295.09 7.81459
4295.13 7.83346
4295.17 7.84420
4295.20 7.84592
4295.24 7.84197
4295.28 7.83177
4295.33 7.80282
4295.41 7.73607
4295.49 7.64093
4295.57 7.51788
4295.66 7.34337
4295.75 7.13876
4295.84 6.90250
4295.93 6.64311
4296.05 6.26696
4296.17 5.86100
4296.29 5.43413
4296.41 4.99514
4296.65 4.11387
4296.77 3.68628
4296.88 3.27901
4297.01 2.87102
4297.07 2.67894
4297.13 2.49426
4297.20 2.31449
4297.26 2.14560
4297.32 1.98483
4297.38 1.83230
4297.45 1.68576
4297.51 1.54986
4297.57 1.42212
4297.63 1.30240
4297.69 1.18879
4297.76 1.08469
4297.82 0.987986
4297.88 0.898403
4298.01 0.738233
4298.13 0.604194
4298.25 0.491404
4298.38 0.398961
4298.50 0.322718
4298.63 0.261419
4298.75 0.211775
4298.88 0.172540
4298.96 0.150469
4299.05 0.131727
4299.13 0.115859
4299.22 0.102456
4299.39 0.0816578
4299.56 0.0670338
4299.73 0.0566383
4299.90 0.0492657
4300.07 0.0439786
4300.23 0.0401381
4300.57 0.0350223
4300.91 0.0318248
4301.59 0.0278727
4302.27 0.0253881
4302.95 0.0236537
4304.31 0.0214124
4305.67 0.0200653
4307.02 0.0192086
4308.38 0.0186437
4309.74 0.0182622
4311.91 0.0178874
4314.09 0.0176915
4316.26 0.0176083
4318.43 0.0175925
4320.42 0.0176202
4322.41 0.0176790
4324.41 0.0177621
4326.40 0.0178647
4328.39 0.0179833
4330.38 0.0181154
4332.37 0.0182595
4334.37 0.0184141
4336.36 0.0185785
4338.35 0.0187519
4340.34 0.0189339
4342.33 0.0191239
4344.32 0.0193220
4346.32 0.0195279
4350.30 0.0199626
4354.28 0.0204282
4358.27 0.0209252
4362.25 0.0214548
4366.23 0.0220186
4370.22 0.0226188
4374.20 0.0232576
4378.18 0.0239382
4382.17 0.0246640
4386.15 0.0254394
4390.13 0.0262688
4394.12 0.0271583
4398.10 0.0281145
4402.08 0.0291458
4406.07 0.0302618
4410.05 0.0314751
4414.03 0.0328001
4417.84 0.0341875
4421.64 0.0357149
4425.44 0.0374102
4427.34 0.0383315
4429.24 0.0393086
4431.15 0.0403485
4433.05 0.0414583
4434.95 0.0426462
4436.85 0.0439230
4438.75 0.0453018
4440.65 0.0467955
4442.55 0.0484157
4444.45 0.0501852
4446.45 0.0522457
4448.44 0.0545473
4450.43 0.0571378
4452.42 0.0600793
4454.41 0.0634588
4456.40 0.0673845
4458.40 0.0720097
4459.39 0.0746418
4460.39 0.0775240
4461.38 0.0807068
4462.38 0.0842412
4463.37 0.0881853
4464.37 0.0926088
4465.37 0.0975994
4466.36 0.103268
4467.36 0.109755
4468.35 0.117229
4469.03 0.123015
4469.71 0.129458
4470.39 0.136666
4471.07 0.144775
4471.75 0.153955
4472.43 0.164419
4473.11 0.176437
4473.79 0.190350
4474.26 0.201475
4474.74 0.213948
4475.21 0.228145
4475.69 0.244793
4476.16 0.265761
4476.40 0.279112
4476.64 0.295565
4476.88 0.316787
4477.11 0.344746
4477.35 0.382554
4477.47 0.406220
4477.59 0.433484
4477.70 0.463915
4477.81 0.498538
4477.93 0.538082
4478.04 0.583014
4478.15 0.634242
4478.27 0.691247
4478.38 0.754748
4478.49 0.824941
4478.61 0.902605
4478.72 0.986291
4478.83 1.07640
4478.95 1.17248
4479.06 1.27390
4479.17 1.37980
4479.40 1.60069
4479.61 1.81388
4479.83 2.01901
4479.94 2.11537
4480.04 2.20453
4480.15 2.28679
4480.26 2.35943
4480.40 2.44044
4480.54 2.50222
4480.63 2.53086
4480.68 2.54252
4480.70 2.54699
4480.71 2.54798
4480.73 2.55172
4480.75 2.55504
4480.78 2.55925
4480.87 2.56650
4480.95 2.56604
4481.03 2.55966
4481.18 2.53075
4481.27 2.50484
4481.37 2.47365
4481.55 2.39827
4481.71 2.32127
4481.87 2.24185
4482.03 2.16526
4482.20 2.09691
4482.36 2.04138
4482.52 2.00358
4482.60 1.99231
4482.68 1.98662
4482.76 1.98683
4482.85 1.99322
4482.92 2.00524
4483.00 2.02296
4483.07 2.04663
4483.15 2.07638
4483.23 2.11231
4483.30 2.15448
4483.38 2.20297
4483.45 2.25782
4483.53 2.31992
4483.61 2.38770
4483.68 2.46193
4483.76 2.54263
4483.84 2.62980
4483.91 2.72345
4483.99 2.82356
4484.06 2.93012
4484.18 3.09882
4484.29 3.27961
4484.40 3.47552
4484.51 3.68274
4484.62 3.90458
4484.73 4.13652
4484.84 4.38203
4484.96 4.63585
4485.18 5.17296
4485.40 5.73691
4485.62 6.31346
4485.85 6.88523
4485.99 7.23046
4486.13 7.56097
4486.26 7.87148
4486.40 8.15481
4486.54 8.41007
4486.68 8.63041
4486.82 8.81165
4486.96 8.94943
4487.04 9.01282
4487.13 9.05833
4487.22 9.08561
4487.30 9.09446
4487.43 9.07337
4487.56 9.01104
4487.69 8.90855
4487.82 8.76893
4487.94 8.59235
4488.07 8.38447
4488.20 8.14540
4488.33 7.88257
4488.45 7.61419
4488.57 7.32995
4488.81 6.73025
4489.05 6.10780
4489.17 5.79435
4489.29 5.48646
4489.42 5.17885
4489.54 4.87881
4489.66 4.58813
4489.78 4.30827
4489.90 4.04038
4490.03 3.78529
4490.15 3.54356
4490.27 3.31733
4490.39 3.10294
4490.45 3.00088
4490.51 2.90220
4490.57 2.80688
4490.64 2.71486
4490.70 2.62608
4490.76 2.54050
4490.82 2.45803
4490.88 2.37862
4490.94 2.30218
4491.00 2.22864
4491.06 2.15792
4491.12 2.08993
4491.18 2.02458
4491.25 1.96180
4491.31 1.90149
4491.37 1.84357
4491.43 1.78795
4491.49 1.73455
4491.55 1.68329
4491.61 1.63407
4491.67 1.58683
4491.73 1.54147
4491.79 1.49793
4491.86 1.45613
4491.92 1.41598
4491.98 1.37743
4492.04 1.34040
4492.10 1.30483
4492.16 1.27065
4492.22 1.23833
4492.28 1.20673
4492.34 1.17635
4492.40 1.14713
4492.46 1.11901
4492.53 1.09196
4492.59 1.06592
4492.65 1.04084
4492.71 1.01668
4492.77 0.993404
4492.83 0.970967
4492.95 0.928466
4493.07 0.888898
4493.20 0.852008
4493.32 0.817568
4493.44 0.785369
4493.56 0.755225
4493.68 0.727191
4493.81 0.700651
4493.93 0.675707
4494.05 0.652233
4494.17 0.630291
4494.28 0.611250
4494.39 0.593177
4494.50 0.576006
4494.61 0.559679
4494.73 0.544141
4494.84 0.529341
4494.95 0.515232
4495.06 0.501891
4495.17 0.489036
4495.28 0.476755
4495.39 0.465013
4495.50 0.453779
4495.61 0.443025
4495.72 0.432723
4495.94 0.413461
4496.12 0.399135
4496.32 0.384016
4496.52 0.369999
4496.72 0.356852
4496.92 0.344625
4497.12 0.333122
4497.32 0.322392
4497.52 0.312270
4497.72 0.302804
4498.12 0.285459
4498.52 0.270030
4498.91 0.256250
4499.31 0.243924
4499.93 0.227099
4500.55 0.212725
4501.18 0.200363
4501.80 0.189686
4502.42 0.180384
4503.04 0.172264
4503.66 0.165121
4504.28 0.158835
4505.52 0.148335
4506.76 0.140065
4508.00 0.133505
4509.24 0.128294
4510.48 0.124155
4511.72 0.120866
4512.97 0.118269
4514.21 0.116258
4515.63 0.114565
4517.04 0.113420
4518.46 0.112744
4519.88 0.112482
4522.54 0.112998
4523.87 0.113747
4525.20 0.114874
4526.53 0.116507
4527.86 0.119059
4528.53 0.121289
4528.86 0.123211
4529.19 0.126509
4529.52 0.132803
4529.86 0.145263
4530.02 0.155528
4530.19 0.169863
4530.35 0.189674
4530.52 0.216710
4530.69 0.253332
4530.85 0.301581
4531.02 0.364424
4531.18 0.444857
4531.27 0.493239
4531.35 0.546623
4531.43 0.605912
4531.52 0.671440
4531.60 0.743507
4531.68 0.822368
4531.77 0.908221
4531.85 1.00120
4531.93 1.10261
4532.02 1.21001
4532.10 1.32442
4532.18 1.44562
4532.27 1.57326
4532.35 1.70687
4532.51 1.98953
4532.68 2.28924
4532.85 2.59433
4533.01 2.89690
4533.18 3.18612
4533.32 3.41894
4533.40 3.52521
4533.47 3.62411
4533.54 3.71478
4533.61 3.79646
4533.68 3.86841
4533.76 3.93000
4533.85 3.99391
4533.94 4.03822
4534.02 4.05942
4534.06 4.06489
4534.09 4.06671
4534.10 4.06679
4534.13 4.06575
4534.17 4.06155
4534.23 4.04675
4534.33 4.00683
4534.41 3.95707
4534.49 3.89406
4534.57 3.81800
4534.65 3.72972
4534.75 3.60768
4534.84 3.47250
4534.94 3.32501
4535.03 3.16737
4535.23 2.82858
4535.42 2.47718
4535.61 2.12589
4535.71 1.95633
4535.80 1.79221
4535.90 1.63474
4536.00 1.48493
4536.09 1.34358
4536.19 1.21125
4536.28 1.08707
4536.38 0.973800
4536.48 0.870111
4536.57 0.775866
4536.67 0.689958
4536.77 0.613783
4536.86 0.545951
4536.96 0.485942
4537.05 0.432683
4537.15 0.386680
4537.25 0.346751
4537.34 0.312305
4537.53 0.257588
4537.73 0.218259
4537.92 0.190494
4538.11 0.171505
4538.30 0.158639
4538.50 0.150167
4538.88 0.141078
4539.27 0.137413
4539.88 0.135645
4540.48 0.135445
4541.70 0.136317
4542.92 0.137903
4544.14 0.139869
4546.58 0.144517
4549.01 0.149875
4551.45 0.155827
4553.89 0.162339
4556.32 0.169412
4558.76 0.177064
4561.58 0.186696
4564.40 0.197210
4567.23 0.208679
4570.05 0.221181
4572.87 0.234816
4575.69 0.249679
4578.51 0.265891
4581.33 0.283561
4582.79 0.293335
4584.26 0.303549
4585.72 0.314232
4587.18 0.325390
4588.64 0.337056
4590.10 0.349232
4591.56 0.361944
4593.02 0.375207
4594.49 0.389046
4595.95 0.403455
4597.41 0.418455
4598.87 0.434060
4601.79 0.467100
4604.71 0.502467
4606.56 0.525935
4608.40 0.550217
4612.08 0.600873
4615.77 0.653315
4619.45 0.705935
4623.14 0.756326
4624.98 0.779768
4626.82 0.801523
4628.66 0.821174
4630.50 0.838320
4632.35 0.852583
4634.19 0.863630
4636.64 0.872892
4639.10 0.875540
4641.56 0.871443
4643.55 0.863261
4645.55 0.850976
4647.55 0.834938
4649.54 0.815588
4651.54 0.793396
4653.53 0.768890
4655.53 0.742595
4657.52 0.715028
4661.52 0.657827
4665.51 0.600769
4669.50 0.545288
4673.49 0.493482
4676.42 0.458141
4679.35 0.425189
4682.28 0.394672
4685.21 0.366541
4688.14 0.340665
4691.07 0.316931
4693.99 0.295182
4696.92 0.275268
4699.75 0.257629
4702.58 0.241433
4705.41 0.226558
4708.24 0.212895
4711.07 0.200331
4713.90 0.188777
4716.73 0.178150
4719.56 0.168385
4721.75 0.161389
4723.94 0.154858
4726.12 0.148789
4728.31 0.143202
4730.50 0.138157
4732.68 0.133805
4734.87 0.130524
4735.96 0.129622
4737.05 0.129652
4738.02 0.131245
4738.50 0.133412
4738.98 0.138296
4739.23 0.143102
4739.47 0.150989
4739.71 0.164100
4739.95 0.185825
4740.07 0.201527
4740.19 0.221357
4740.31 0.246678
4740.43 0.278281
4740.55 0.318114
4740.67 0.367132
4740.79 0.427997
4740.91 0.501727
4741.05 0.605001
4741.19 0.731991
4741.26 0.806081
4741.32 0.886348
4741.39 0.974265
4741.46 1.07027
4741.53 1.17639
4741.60 1.28997
4741.67 1.41472
4741.73 1.54737
4741.80 1.69215
4741.87 1.84508
4741.94 2.00839
4742.01 2.18219
4742.08 2.36931
4742.14 2.56429
4742.21 2.77271
4742.28 2.98831
4742.35 3.21708
4742.42 3.45194
4742.49 3.69558
4742.55 3.94731
4742.69 4.47579
4742.83 5.02191
4743.10 6.14321
4743.23 6.65926
4743.37 7.21801
4743.52 7.73369
4743.59 7.97196
4743.66 8.19040
4743.74 8.39327
4743.81 8.57334
4743.93 8.82702
4744.05 9.01292
4744.15 9.11759
4744.21 9.15148
4744.25 9.16689
4744.29 9.17206
4744.30 9.17239
4744.33 9.17042
4744.36 9.16384
4744.40 9.14839
4744.45 9.11423
4744.56 9.00598
4744.62 8.91521
4744.68 8.80579
4744.81 8.53644
4744.92 8.22947
4745.04 7.87439
4745.18 7.37427
4745.33 6.82629
4745.47 6.24667
4745.62 5.65549
4745.76 5.05946
4745.91 4.47613
4746.05 3.91702
4746.12 3.65133
4746.20 3.39486
4746.29 3.06522
4746.39 2.75515
4746.49 2.46566
4746.58 2.20003
4746.68 1.95291
4746.78 1.72928
4746.87 1.52405
4746.97 1.34076
4747.07 1.17472
4747.16 1.02832
4747.26 0.897320
4747.36 0.783210
4747.45 0.682322
4747.55 0.595456
4747.65 0.519522
4747.74 0.454861
4747.84 0.398941
4747.94 0.351364
4748.03 0.311084
4748.13 0.277462
4748.32 0.225322
4748.51 0.189100
4748.71 0.164236
4748.90 0.147292
4749.09 0.135756
4749.29 0.127846
4749.60 0.119808
4749.90 0.114942
4750.52 0.109253
4751.14 0.105640
4751.76 0.102883
4752.99 0.0986790
4754.23 0.0954413
4756.70 0.0903925
4759.17 0.0863104
4761.65 0.0827348
4764.12 0.0795079
4766.59 0.0765377
4769.06 0.0737732
4774.00 0.0687485
4778.95 0.0642621
4783.89 0.0602069
4788.83 0.0565340
4793.78 0.0531927
4798.72 0.0501430
4805.52 0.0463696
4812.32 0.0430090
4819.11 0.0400100
4825.91 0.0373318
4832.71 0.0349260
4839.50 0.0327737
4846.30 0.0308505
4853.10 0.0291426
4859.28 0.0277877
4865.46 0.0266426
4871.63 0.0257567
4877.81 0.0253405
4881.21 0.0254618
4884.61 0.0260882
4886.31 0.0267284
4888.01 0.0277291
4889.71 0.0292924
4891.41 0.0318121
4893.03 0.0358732
4893.84 0.0389693
4894.65 0.0432549
4895.46 0.0494509
4895.87 0.0536979
4896.27 0.0591790
4896.68 0.0667763
4897.09 0.0784427
4897.29 0.0871426
4897.49 0.0989965
4897.69 0.115762
4897.90 0.139702
4898.01 0.158031
4898.13 0.180752
4898.24 0.208918
4898.36 0.243792
4898.48 0.286875
4898.59 0.339922
4898.71 0.404971
4898.82 0.483604
4898.95 0.593628
4899.08 0.728378
4899.15 0.807997
4899.21 0.894605
4899.28 0.989982
4899.34 1.09478
4899.41 1.21151
4899.48 1.33733
4899.54 1.47459
4899.61 1.62398
4899.67 1.78615
4899.74 1.96175
4899.80 2.15141
4899.87 2.35571
4899.93 2.57869
4900.00 2.81408
4900.06 3.06557
4900.13 3.33350
4900.19 3.62266
4900.26 3.92443
4900.32 4.24314
4900.39 4.57872
4900.45 4.93653
4900.52 5.30540
4900.58 5.69016
4900.65 6.09019
4900.71 6.50472
4900.78 6.93281
4900.91 7.82512
4901.09 9.15164
4901.28 10.5094
4901.46 11.8660
4901.64 13.1531
4901.74 13.7911
4901.84 14.3876
4901.93 14.9346
4902.03 15.4196
4902.13 15.8620
4902.23 16.2279
4902.34 16.5230
4902.42 16.6937
4902.48 16.7649
4902.53 16.8110
4902.59 16.8324
4902.60 16.8330
4902.63 16.8296
4902.65 16.8201
4902.70 16.7901
4902.76 16.7167
4902.83 16.6022
4902.95 16.3006
4903.03 15.9988
4903.12 15.6358
4903.20 15.2759
4903.28 14.8768
4903.35 14.4423
4903.43 13.9761
4903.52 13.4360
4903.60 12.8753
4903.76 11.6940
4904.10 9.23588
4904.28 7.94135
4904.36 7.32204
4904.45 6.72400
4904.54 6.15033
4904.63 5.60356
4904.72 5.08566
4904.81 4.59806
4904.90 4.13672
4904.99 3.71235
4905.08 3.31962
4905.17 2.95816
4905.26 2.62724
4905.34 2.32586
4905.43 2.05277
4905.52 1.80655
4905.59 1.64765
4905.65 1.50308
4905.71 1.36759
4905.77 1.24489
4905.84 1.13041
4905.90 1.02719
4905.96 0.931304
4906.02 0.845218
4906.15 0.694364
4906.27 0.570285
4906.40 0.468978
4906.52 0.387413
4906.65 0.321080
4906.77 0.267896
4906.90 0.225443
4907.02 0.191907
4907.15 0.165037
4907.27 0.143711
4907.40 0.126766
4907.52 0.113355
4907.64 0.102515
4907.77 0.0937689
4908.02 0.0808277
4908.27 0.0718056
4908.52 0.0652294
4909.02 0.0560625
4909.52 0.0497554
4910.04 0.0448241
4910.56 0.0409944
4911.61 0.0354440
4912.65 0.0316408
4913.70 0.0289035
4915.79 0.0252593
4917.88 0.0229634
4919.78 0.0215099
4921.68 0.0204207
4925.48 0.0188632
4929.29 0.0177760
4933.09 0.0169472
4939.93 0.0157946
4946.77 0.0148984
4953.62 0.0141389
4960.46 0.0134727
4974.15 0.0123290
4987.83 0.0113621
5000.00 0.0106129
5016.64 0.00972187
5033.27 0.00894443
5049.91 0.00826545
5066.54 0.00767303
5083.18 0.00714571
5099.81 0.00668130
5116.45 0.00626847
5133.08 0.00589888
5160.30 0.00538274
5173.91 0.00516082
5187.52 0.00498288
5188.66 0.00501704
5189.22 0.00512303
5189.79 0.00545009
5190.07 0.00578404
5190.36 0.00629919
5190.64 0.00706252
5190.92 0.00813170
5191.21 0.00956443
5191.49 0.0113706
5192.06 0.0159546
5192.68 0.0214024
5193.00 0.0235763
5193.31 0.0249847
5193.50 0.0253728
5193.58 0.0254233
5193.60 0.0254257
5193.67 0.0254019
5193.77 0.0252756
5194.17 0.0237406
5194.62 0.0205109
5195.07 0.0165419
5195.43 0.0134747
5195.78 0.0108154
5196.14 0.00872207
5196.49 0.00721161
5196.85 0.00620578
5197.20 0.00558405
5197.56 0.00522496
5197.91 0.00502973
5198.62 0.00487442
5199.33 0.00482914
5200.75 0.00479392
5206.43 0.00470861
5217.78 0.00457122
5240.49 0.00433900
5263.20 0.00415427
5285.91 0.00401695
5308.98 0.00392963
5332.05 0.00390310
5352.24 0.00394260
5372.42 0.00405471
5392.61 0.00427350
5402.70 0.00443631
5412.80 0.00464659
5424.33 0.00496230
5435.87 0.00538486
5441.63 0.00564736
5447.40 0.00595343
5453.17 0.00631312
5458.94 0.00673668
5466.87 0.00745108
5470.83 0.00787969
5474.80 0.00836699
5478.76 0.00892370
5482.73 0.00956283
5486.69 0.0103009
5490.66 0.0111588
5495.70 0.0124650
5498.23 0.0132255
5500.75 0.0140786
5503.27 0.0150360
5505.80 0.0161144
5510.84 0.0187347
5514.09 0.0208061
5515.71 0.0219899
5517.33 0.0232949
5518.95 0.0247318
5519.77 0.0255050
5520.58 0.0263186
5521.39 0.0271760
5522.20 0.0280801
5523.01 0.0290341
5523.82 0.0300416
5524.68 0.0311686
5525.53 0.0323635
5526.39 0.0336332
5527.25 0.0349839
5527.67 0.0356918
5528.10 0.0364225
5528.53 0.0371772
5528.96 0.0379567
5529.39 0.0387623
5529.81 0.0395952
5530.24 0.0404566
5530.67 0.0413480
5531.03 0.0421220
5531.53 0.0432263
5532.02 0.0443768
5532.52 0.0455760
5533.01 0.0468242
5533.51 0.0481291
5534.00 0.0494917
5534.50 0.0509151
5535.00 0.0524002
5535.49 0.0539567
5535.99 0.0555860
5536.48 0.0572927
5536.98 0.0590780
5537.47 0.0609545
5537.72 0.0619274
5537.97 0.0629203
5538.22 0.0639421
5538.47 0.0649897
5538.71 0.0660639
5538.96 0.0671610
5539.21 0.0682910
5539.46 0.0694505
5539.70 0.0706403
5539.95 0.0718617
5540.20 0.0731157
5540.45 0.0744035
5540.70 0.0757263
5540.94 0.0770797
5541.19 0.0784762
5541.44 0.0799117
5541.69 0.0813876
5541.93 0.0828992
5542.18 0.0844603
5542.43 0.0860667
5542.68 0.0877199
5542.93 0.0894150
5543.17 0.0911674
5543.42 0.0929726
5543.67 0.0948325
5543.92 0.0967494
5544.17 0.0987256
5544.41 0.100764
5544.66 0.102866
5544.91 0.105026
5545.16 0.107265
5545.40 0.109577
5545.65 0.111965
5545.90 0.114422
5546.15 0.116971
5546.40 0.119607
5546.64 0.122334
5546.89 0.125143
5547.14 0.128062
5547.39 0.131085
5547.63 0.134216
5547.88 0.137461
5548.13 0.140824
5548.38 0.144312
5548.63 0.147931
5548.87 0.151671
5549.12 0.155571
5549.37 0.159622
5549.62 0.163832
5549.86 0.168191
5550.11 0.172745
5550.36 0.177483
5550.61 0.182417
5550.86 0.187536
5551.10 0.192893
5551.35 0.198479
5551.60 0.204307
5551.85 0.210391
5552.10 0.216747
5552.34 0.223388
5552.59 0.230334
5552.84 0.237570
5553.09 0.245176
5553.33 0.253144
5553.58 0.261494
5553.83 0.270217
5554.08 0.279406
5554.33 0.289056
5554.57 0.299196
5554.82 0.309813
5555.18 0.326332
5555.54 0.344093
5555.90 0.363323
5556.26 0.384060
5556.44 0.395123
5556.62 0.406577
5556.80 0.418504
5556.98 0.430927
5557.16 0.443946
5557.34 0.457443
5557.52 0.471516
5557.70 0.486194
5557.95 0.507466
5558.20 0.530030
5558.45 0.553975
5558.70 0.579398
5558.94 0.606397
5559.19 0.635079
5559.44 0.665553
5559.69 0.697798
5559.94 0.732191
5560.18 0.768721
5560.43 0.807505
5560.68 0.848655
5560.93 0.892277
5561.18 0.938467
5561.42 0.987303
5561.67 1.03863
5561.99 1.10849
5562.30 1.18279
5562.62 1.26139
5562.94 1.34375
5563.25 1.42991
5563.57 1.51894
5563.89 1.60994
5564.20 1.70149
5564.60 1.81640
5565.00 1.92691
5565.40 2.02990
5565.80 2.12099
5566.00 2.16106
5566.20 2.19681
5566.40 2.22780
5566.60 2.25355
5566.80 2.27401
5567.00 2.28877
5567.20 2.29764
5567.40 2.30052
5567.69 2.29398
5567.98 2.27486
5568.22 2.25034
5568.46 2.21839
5568.69 2.17946
5568.93 2.13421
5569.16 2.08335
5569.40 2.02764
5569.64 1.96789
5569.87 1.90491
5570.34 1.77208
5570.82 1.63557
5571.29 1.50004
5571.76 1.36928
5572.10 1.27982
5572.44 1.19486
5572.78 1.11478
5573.12 1.03977
5573.46 0.969877
5573.79 0.905006
5574.13 0.844978
5574.47 0.789712
5574.80 0.739476
5575.14 0.693142
5575.47 0.650428
5575.80 0.611168
5576.14 0.574858
5576.47 0.541367
5576.80 0.510455
5577.13 0.481983
5577.65 0.441986
5578.16 0.406530
5578.68 0.374890
5579.19 0.346681
5579.71 0.321358
5580.22 0.298646
5580.73 0.278176
5581.25 0.259675
5581.91 0.238256
5582.58 0.219350
5583.25 0.202543
5583.91 0.187588
5584.58 0.174189
5585.24 0.162178
5585.91 0.151341
5586.57 0.141562
5587.24 0.132684
5587.90 0.124613
5588.57 0.117256
5589.24 0.110541
5589.90 0.104380
5590.57 0.0987307
5591.23 0.0935248
5591.90 0.0887317
5593.17 0.0805503
5594.44 0.0734564
5595.71 0.0672651
5596.98 0.0618375
5598.25 0.0570478
5599.52 0.0528071
5600.79 0.0490292
5602.06 0.0456545
5603.39 0.0424856
5604.73 0.0396468
5606.06 0.0370920
5607.39 0.0347847
5608.72 0.0326925
5610.05 0.0307922
5611.38 0.0290599
5612.71 0.0274763
5614.65 0.0254041
5616.59 0.0235711
5618.52 0.0219440
5620.46 0.0204901
5622.39 0.0191823
5624.33 0.0180038
5626.27 0.0169389
5628.20 0.0159733
5630.86 0.0147858
5633.53 0.0137384
5636.19 0.0128095
5638.85 0.0119818
5641.51 0.0112409
5644.18 0.0105756
5649.50 0.00943302
5653.37 0.00873124
5657.24 0.00811813
5661.12 0.00758089
5664.99 0.00710643
5672.73 0.00630690
5680.48 0.00566773
5685.80 0.00530089
5691.13 0.00498205
5701.78 0.00446168
5712.43 0.00406517
5723.08 0.00376772
5736.63 0.00351405
5750.18 0.00340515
5763.74 0.00349711
5770.51 0.00367037
5777.29 0.00399493
5782.62 0.00442847
5787.94 0.00513927
5790.60 0.00566546
5793.26 0.00636942
5795.93 0.00733565
5798.59 0.00870581
5800.04 0.00970748
5801.49 0.0109638
5802.95 0.0125616
5804.40 0.0146310
5805.85 0.0174067
5807.30 0.0212722
5808.03 0.0237972
5808.75 0.0268687
5809.48 0.0306571
5810.21 0.0354071
5810.93 0.0414862
5811.66 0.0494794
5812.38 0.0603982
5812.75 0.0675111
5813.11 0.0762796
5813.47 0.0875029
5813.84 0.102685
5814.02 0.112623
5814.20 0.124772
5814.38 0.140095
5814.56 0.159563
5814.74 0.184968
5814.92 0.218158
5815.11 0.262355
5815.29 0.320799
5815.47 0.398965
5815.56 0.447197
5815.65 0.502040
5815.74 0.565692
5815.83 0.638671
5815.92 0.722156
5816.01 0.816312
5816.13 0.963415
5816.26 1.13723
5816.38 1.34148
5816.50 1.58007
5816.56 1.71464
5816.62 1.85703
5816.68 2.01249
5816.74 2.17642
5816.80 2.35479
5816.86 2.54224
5816.92 2.74546
5816.98 2.95825
5817.04 3.18811
5817.10 3.42788
5817.16 3.68590
5817.22 3.95401
5817.28 4.24140
5817.34 4.53884
5817.41 4.85637
5817.47 5.18365
5817.53 5.53158
5817.59 5.88867
5817.65 6.26664
5817.71 6.65287
5817.83 7.47382
5817.95 8.34758
5818.06 9.21410
5818.18 10.1085
5818.40 11.9817
5818.63 13.8949
5818.86 15.7597
5818.96 16.5864
5819.07 17.3708
5819.18 18.1028
5819.28 18.7663
5819.41 19.4845
5819.54 20.0816
5819.62 20.3956
5819.70 20.6512
5819.79 20.8480
5819.87 20.9783
5819.97 21.0513
5820.00 21.0569
5820.09 21.0220
5820.15 20.9512
5820.23 20.8202
5820.34 20.5332
5820.42 20.2562
5820.50 19.9292
5820.63 19.2919
5820.76 18.5358
5820.88 17.7394
5821.00 16.8682
5821.12 15.9372
5821.24 14.9700
5821.72 10.9362
5821.84 9.95236
5821.96 9.00996
5822.08 8.10167
5822.20 7.24918
5822.28 6.73648
5822.36 6.25236
5822.43 5.78461
5822.51 5.34601
5822.58 4.92512
5822.66 4.53308
5822.73 4.16408
5822.81 3.81787
5822.88 3.48985
5822.96 3.18813
5823.03 2.90759
5823.11 2.64749
5823.18 2.40396
5823.26 2.18253
5823.33 1.97894
5823.41 1.79226
5823.49 1.61935
5823.56 1.46378
5823.64 1.32041
5823.71 1.19205
5823.79 1.07430
5823.86 0.969362
5823.94 0.874721
5824.01 0.789540
5824.09 0.712053
5824.16 0.643535
5824.31 0.527368
5824.46 0.434244
5824.61 0.360916
5824.80 0.292547
5824.98 0.241110
5825.16 0.202337
5825.34 0.173082
5825.52 0.150544
5825.70 0.133052
5825.88 0.119245
5826.06 0.108192
5826.42 0.0914205
5826.78 0.0792826
5827.15 0.0698961
5827.51 0.0623652
5828.23 0.0508646
5828.95 0.0424962
5829.68 0.0361699
5830.40 0.0312548
5831.52 0.0255093
5832.65 0.0213071
5833.77 0.0181310
5834.90 0.0156732
5836.02 0.0137331
5837.15 0.0121743
5838.27 0.0109028
5839.40 0.00985491
5841.65 0.00824497
5843.90 0.00706001
5846.15 0.00616135
5848.40 0.00546822
5851.93 0.00465890
5855.47 0.00407679
5859.00 0.00364251
5862.54 0.00330880
5869.61 0.00283459
5876.68 0.00251770
5885.68 0.00224319
5894.67 0.00205431
5912.67 0.00182042
5925.52 0.00172932
5938.38 0.00169934
5947.06 0.00173551
5951.40 0.00178598
5955.73 0.00187514
5960.07 0.00202159
5962.24 0.00213840
5964.41 0.00230090
5966.58 0.00253157
5968.75 0.00286559
5970.92 0.00338031
5972.00 0.00375421
5973.09 0.00424756
5974.37 0.00506554
5975.02 0.00561530
5975.66 0.00630185
5976.34 0.00724506
5977.02 0.00851992
5977.37 0.00934912
5977.71 0.0103777
5978.05 0.0117353
5978.39 0.0136678
5978.56 0.0150034
5978.73 0.0167186
5978.90 0.0189696
5979.07 0.0219557
5979.24 0.0260163
5979.42 0.0315550
5979.59 0.0391379
5979.76 0.0494470
5979.93 0.0635810
5980.10 0.0827474
5980.27 0.108530
5980.44 0.142649
5980.61 0.187842
5980.78 0.246696
5980.95 0.322370
5981.12 0.417746
5981.26 0.514740
5981.40 0.629391
5981.54 0.765485
5981.68 0.923112
5981.83 1.10635
5981.97 1.31408
5982.11 1.55031
5982.25 1.81211
5982.39 2.10296
5982.53 2.41764
5982.67 2.75860
5982.81 3.11800
5982.95 3.49694
5983.09 3.88503
5983.37 4.67494
5983.56 5.19652
5983.66 5.44667
5983.75 5.68297
5983.85 5.90788
5983.94 6.11430
5984.04 6.30423
5984.13 6.47157
5984.21 6.58938
5984.29 6.69068
5984.36 6.77638
5984.44 6.84583
5984.56 6.92191
5984.62 6.94337
5984.66 6.95159
5984.69 6.95448
5984.70 6.95457
5984.72 6.95392
5984.74 6.95215
5984.77 6.94615
5984.83 6.93002
5984.93 6.87554
5985.04 6.77251
5985.16 6.62938
5985.24 6.50925
5985.32 6.37428
5985.40 6.22420
5985.48 6.06022
5985.64 5.69589
5985.80 5.29248
5985.94 4.93585
5986.07 4.56993
5986.33 3.82766
5986.46 3.46286
5986.60 3.10898
5986.73 2.77013
5986.86 2.44965
5987.01 2.10882
5987.16 1.79793
5987.31 1.51833
5987.46 1.27027
5987.61 1.05307
5987.77 0.865321
5987.92 0.704045
5988.07 0.568986
5988.22 0.456400
5988.37 0.363613
5988.52 0.287985
5988.67 0.226997
5988.82 0.178318
5988.97 0.139841
5989.13 0.109706
5989.28 0.0863042
5989.43 0.0682685
5989.58 0.0544593
5989.73 0.0439413
5989.88 0.0359589
5990.03 0.0299105
5990.18 0.0253240
5990.33 0.0218335
5990.48 0.0191593
5990.64 0.0170898
5990.79 0.0154670
5991.09 0.0131238
5991.39 0.0115217
5991.69 0.0103403
5991.99 0.00941269
5992.60 0.00800662
5993.05 0.00720068
5993.50 0.00653980
5994.41 0.00552156
5995.32 0.00477801
5996.22 0.00421617
5997.13 0.00377946
5998.04 0.00343367
5999.85 0.00292898
6001.66 0.00257906
6003.47 0.00232350
6005.28 0.00213295
6008.91 0.00187562
6012.53 0.00171317
6016.16 0.00159866
6023.41 0.00145974
6030.66 0.00139092
6037.91 0.00137569
6042.13 0.00140200
6046.36 0.00148342
6048.48 0.00156944
6050.59 0.00171586
6051.65 0.00183156
6052.71 0.00199635
6053.76 0.00224099
6054.29 0.00241252
6054.82 0.00264013
6055.42 0.00304061
6055.73 0.00336410
6056.03 0.00386359
6056.18 0.00422308
6056.33 0.00469266
6056.48 0.00531240
6056.63 0.00613589
6056.78 0.00723392
6056.93 0.00869887
6057.08 0.0106497
6057.24 0.0132376
6057.39 0.0166519
6057.54 0.0211260
6057.69 0.0269435
6057.84 0.0344430
6057.99 0.0440216
6058.14 0.0561362
6058.29 0.0713021
6058.44 0.0900865
6058.59 0.113099
6058.75 0.140973
6058.90 0.174348
6059.05 0.213837
6059.20 0.259993
6059.35 0.313272
6059.50 0.373989
6059.65 0.442272
6059.83 0.533401
6060.01 0.633876
6060.19 0.743552
6060.37 0.859322
6060.73 1.10098
6060.91 1.21956
6061.09 1.33185
6061.24 1.41877
6061.39 1.49609
6061.54 1.56167
6061.69 1.61362
6061.81 1.64479
6061.94 1.66515
6062.03 1.67324
6062.08 1.67506
6062.10 1.67527
6062.14 1.67466
6062.20 1.67150
6062.35 1.65197
6062.47 1.62471
6062.52 1.61103
6062.57 1.59548
6062.75 1.52513
6062.93 1.43727
6063.11 1.33507
6063.29 1.22240
6063.72 0.931700
6063.94 0.788505
6064.16 0.654340
6064.37 0.531627
6064.59 0.423798
6064.81 0.330906
6065.02 0.253775
6065.20 0.201932
6065.37 0.159055
6065.55 0.123758
6065.72 0.0954792
6065.89 0.0729062
6066.07 0.0553543
6066.24 0.0417431
6066.42 0.0314496
6066.51 0.0272555
6066.59 0.0236755
6066.68 0.0205909
6066.77 0.0179405
6066.85 0.0156450
6066.94 0.0137067
6067.03 0.0120532
6067.12 0.0106456
6067.29 0.00842337
6067.46 0.00683641
6067.64 0.00569743
6067.81 0.00487814
6067.99 0.00428177
6068.16 0.00384730
6068.34 0.00352129
6068.51 0.00327383
6068.86 0.00292220
6069.21 0.00268195
6069.91 0.00235537
6070.60 0.00213163
6071.37 0.00195057
6073.01 0.00169669
6074.64 0.00154141
6077.92 0.00136201
6081.19 0.00126530
6084.46 0.00120710
6091.00 0.00113195
6097.55 0.00108859
6123.72 0.00100205
6142.20 0.000974383
6149.13 0.000984191
6152.59 0.00102186
6153.46 0.00104428
6154.32 0.00109168
6154.75 0.00114976
6154.97 0.00120113
6155.19 0.00127848
6155.40 0.00139668
6155.62 0.00157518
6155.84 0.00184502
6156.05 0.00224407
6156.16 0.00250329
6156.26 0.00281111
6156.37 0.00317821
6156.47 0.00361402
6156.58 0.00413431
6156.69 0.00474077
6156.79 0.00545033
6156.90 0.00627630
6157.00 0.00724256
6157.11 0.00834577
6157.32 0.0110496
6157.53 0.0145377
6157.74 0.0188935
6157.95 0.0242562
6158.16 0.0306369
6158.37 0.0381075
6158.58 0.0465420
6159.42 0.0864342
6159.78 0.102743
6160.14 0.115411
6160.29 0.118988
6160.31 0.119490
6160.37 0.120567
6160.43 0.121482
6160.54 0.122808
6160.64 0.123411
6160.67 0.123481
6160.70 0.123504
6160.73 0.123473
6160.81 0.123180
6160.99 0.121291
6161.10 0.119226
6161.19 0.117274
6161.30 0.114140
6161.76 0.0967388
6162.21 0.0749598
6162.76 0.0493560
6163.03 0.0382783
6163.30 0.0288492
6163.57 0.0211701
6163.70 0.0179592
6163.84 0.0151714
6163.98 0.0127391
6164.11 0.0106679
6164.25 0.00890674
6164.38 0.00742287
6164.50 0.00635312
6164.61 0.00544878
6164.72 0.00468174
6164.84 0.00403503
6164.95 0.00349293
6165.07 0.00304108
6165.18 0.00266650
6165.29 0.00235758
6165.41 0.00210408
6165.52 0.00189702
6165.75 0.00159213
6165.98 0.00139313
6166.21 0.00126442
6166.42 0.00118428
6166.64 0.00113140
6167.08 0.00107086
6167.95 0.00102045
6169.69 0.000979578
6173.16 0.000942271
6180.12 0.000914223
6194.04 0.000889266
6221.87 0.000855736
6277.54 0.000809772
6306.75 0.000797603
6342.34 0.000815096
6351.24 0.000838177
6360.14 0.000887352
6364.58 0.000928138
6369.03 0.000995366
6373.48 0.00111531
6375.71 0.00120834
6377.93 0.00134285
6379.76 0.00150684
6381.58 0.00174880
6382.55 0.00192880
6383.52 0.00216458
6384.49 0.00248200
6385.46 0.00292387
6385.95 0.00321529
6386.43 0.00357580
6386.92 0.00403917
6387.40 0.00467911
6387.64 0.00511956
6387.89 0.00569450
6388.13 0.00648839
6388.37 0.00762511
6388.49 0.00839148
6388.61 0.00932599
6388.73 0.0104799
6388.86 0.0119100
6388.98 0.0136858
6389.10 0.0158929
6389.22 0.0186347
6389.34 0.0220358
6389.44 0.0254492
6389.54 0.0295118
6389.64 0.0343352
6389.74 0.0400460
6389.84 0.0467867
6389.94 0.0547169
6390.04 0.0640136
6390.14 0.0747549
6390.24 0.0873690
6390.34 0.101987
6390.44 0.118855
6390.54 0.138032
6390.74 0.185404
6390.94 0.245937
6391.14 0.322618
6391.34 0.416933
6391.54 0.531776
6391.73 0.667363
6391.93 0.825592
6392.13 1.00432
6392.33 1.20344
6392.53 1.41761
6392.80 1.72601
6393.07 2.03844
6393.21 2.19050
6393.35 2.33473
6393.48 2.47046
6393.62 2.59300
6393.73 2.68513
6393.84 2.76536
6393.96 2.83245
6394.07 2.88531
6394.17 2.91845
6394.27 2.94011
6394.34 2.94916
6394.39 2.95129
6394.40 2.95138
6394.44 2.95021
6394.50 2.94511
6394.63 2.91767
6394.72 2.88858
6394.80 2.85135
6394.89 2.80605
6394.97 2.75307
6395.08 2.67775
6395.18 2.59328
6395.29 2.50009
6395.39 2.39932
6395.60 2.17995
6395.81 1.94513
6396.11 1.59532
6396.27 1.41379
6396.43 1.23965
6396.59 1.07552
6396.75 0.923395
6396.92 0.784613
6397.08 0.659911
6397.24 0.549486
6397.40 0.453072
6397.56 0.370037
6397.72 0.299466
6397.88 0.240259
6398.04 0.191206
6398.20 0.151058
6398.36 0.118585
6398.53 0.0926173
6398.69 0.0721918
6398.81 0.0594421
6398.93 0.0490233
6399.06 0.0404799
6399.18 0.0335097
6399.30 0.0278492
6399.42 0.0232708
6399.55 0.0195805
6399.67 0.0166138
6399.79 0.0142332
6399.92 0.0123242
6400.04 0.0107927
6400.16 0.00956189
6400.29 0.00856933
6400.41 0.00776496
6400.65 0.00656899
6400.90 0.00574131
6401.15 0.00514673
6401.64 0.00433786
6402.13 0.00379101
6402.62 0.00338025
6403.61 0.00278863
6404.59 0.00238231
6405.58 0.00208756
6406.56 0.00186678
6407.77 0.00166365
6408.98 0.00151283
6410.35 0.00138434
6411.71 0.00128505
6414.44 0.00114426
6417.16 0.00105271
6419.89 0.000991799
6425.34 0.000913053
6430.79 0.000868620
6441.70 0.000828118
6452.60 0.000816351
6470.17 0.000836395
6478.96 0.000865418
6487.74 0.000913906
6496.53 0.000994568
6500.92 0.00104711
6505.31 0.00112250
6509.70 0.00122722
6514.09 0.00137443
6518.49 0.00158448
6520.68 0.00173094
6522.88 0.00191608
6524.70 0.00210892
6526.51 0.00235028
6528.33 0.00265667
6530.15 0.00305110
6531.59 0.00345461
6533.02 0.00397529
6534.46 0.00466083
6535.90 0.00558755
6537.34 0.00688337
6538.06 0.00773468
6538.78 0.00877463
6539.50 0.0100709
6540.22 0.0117177
6540.94 0.0138697
6541.66 0.0167914
6542.26 0.0202545
6542.57 0.0225797
6542.87 0.0255799
6543.17 0.0296787
6543.48 0.0356405
6543.63 0.0397268
6543.78 0.0448241
6543.93 0.0513287
6544.08 0.0595768
6544.23 0.0702223
6544.38 0.0838085
6544.54 0.101378
6544.69 0.123754
6544.84 0.152531
6544.99 0.188876
6545.14 0.235113
6545.29 0.292763
6545.45 0.365045
6545.60 0.453742
6545.75 0.563064
6545.90 0.694801
6546.05 0.854110
6546.13 0.944895
6546.20 1.04232
6546.28 1.14940
6546.35 1.26372
6546.43 1.38869
6546.50 1.52138
6546.61 1.73142
6546.72 1.96255
6546.83 2.21537
6546.94 2.49020
6547.05 2.78708
6547.16 3.10570
6547.27 3.44540
6547.38 3.80170
6547.48 4.17971
6547.59 4.57427
6547.70 4.98298
6547.81 5.40301
6548.25 7.12129
6548.41 7.73792
6548.57 8.32075
6548.73 8.85440
6548.89 9.32399
6549.04 9.69623
6549.12 9.85318
6549.19 9.98755
6549.27 10.1020
6549.34 10.1928
6549.44 10.2777
6549.50 10.3062
6549.55 10.3229
6549.60 10.3291
6549.60 10.3291
6549.61 10.3288
6549.63 10.3277
6549.65 10.3236
6549.70 10.3101
6549.75 10.2792
6549.84 10.2075
6549.97 10.0435
6550.10 9.81245
6550.23 9.52263
6550.37 9.14682
6550.51 8.71540
6550.66 8.23788
6550.80 7.72813
6550.98 7.01731
6551.16 6.28923
6551.35 5.56135
6551.53 4.85248
6551.62 4.51023
6551.72 4.17835
6551.81 3.85828
6551.90 3.55120
6551.99 3.25808
6552.08 2.97965
6552.18 2.71645
6552.27 2.46881
6552.40 2.13151
6552.54 1.83043
6552.68 1.56023
6552.81 1.32349
6552.95 1.11484
6553.08 0.935218
6553.22 0.779597
6553.35 0.647835
6553.49 0.535509
6553.62 0.441877
6553.76 0.363248
6553.89 0.298642
6554.03 0.245124
6554.17 0.201711
6554.30 0.166408
6554.44 0.137841
6554.57 0.114673
6554.71 0.0962235
6554.84 0.0813481
6554.98 0.0695460
6555.11 0.0600414
6555.25 0.0524875
6555.38 0.0463739
6555.52 0.0414738
6555.79 0.0341922
6556.06 0.0291942
6556.33 0.0255976
6556.60 0.0228849
6557.12 0.0190769
6557.64 0.0163415
6558.16 0.0142319
6558.68 0.0125452
6559.20 0.0111678
6559.72 0.0100251
6560.76 0.00825171
6561.98 0.00676264
6563.19 0.00567486
6564.40 0.00485364
6565.62 0.00421947
6566.83 0.00371909
6568.04 0.00331786
6570.47 0.00272150
6572.90 0.00230906
6575.33 0.00200617
6577.75 0.00177738
6580.18 0.00160162
6583.04 0.00144457
6585.90 0.00132582
6591.62 0.00114802
6597.34 0.00103070
6603.06 0.000949238
6614.50 0.000848044
6625.94 0.000786488
6648.83 0.000721842
6671.71 0.000691624
6716.09 0.000673638
6746.60 0.000681873
6777.11 0.000711675
6792.36 0.000739927
6807.62 0.000785773
6822.87 0.000861678
6838.13 0.000993480
6843.67 0.00106841
6849.22 0.00116815
6854.77 0.00130342
6860.31 0.00149329
6865.86 0.00176679
6868.64 0.00195214
6871.41 0.00218948
6874.18 0.00249557
6876.96 0.00289937
6879.73 0.00344732
6882.50 0.00420664
6884.15 0.00481142
6885.80 0.00559105
6887.44 0.00661435
6889.09 0.00799259
6890.74 0.00991128
6891.56 0.0111657
6892.39 0.0126909
6893.21 0.0145796
6894.03 0.0169608
6894.86 0.0200432
6895.68 0.0241382
6896.33 0.0284373
6896.98 0.0341950
6897.30 0.0379093
6897.63 0.0424790
6897.95 0.0483299
6898.28 0.0562136
6898.60 0.0674660
6898.77 0.0750588
6898.93 0.0844324
6899.09 0.0962631
6899.25 0.111121
6899.42 0.130106
6899.58 0.154129
6899.74 0.184916
6899.90 0.223825
6900.07 0.273446
6900.15 0.302771
6900.23 0.335651
6900.31 0.372937
6900.39 0.414125
6900.47 0.460068
6900.55 0.511216
6900.64 0.568782
6900.72 0.631864
6900.80 0.701644
6900.88 0.778657
6900.99 0.900352
6901.11 1.03902
6901.16 1.11520
6901.22 1.19622
6901.28 1.28226
6901.34 1.37351
6901.39 1.47016
6901.45 1.57239
6901.51 1.68036
6901.56 1.79424
6901.68 2.04032
6901.79 2.30918
6901.90 2.60640
6902.02 2.93021
6902.13 3.28076
6902.25 3.65440
6902.36 4.05704
6902.47 4.48431
6902.59 4.93449
6902.70 5.40111
6902.81 5.86788
6902.92 6.34359
6903.13 7.32548
6903.35 8.31531
6903.57 9.27208
6903.68 9.75228
6903.79 10.2038
6903.91 10.6290
6904.02 11.0147
6904.14 11.3796
6904.26 11.6907
6904.34 11.8729
6904.42 12.0257
6904.54 12.1975
6904.61 12.2709
6904.67 12.3143
6904.75 12.3479
6904.80 12.3530
6904.88 12.3375
6904.96 12.2937
6905.04 12.2186
6905.12 12.1124
6905.20 11.9857
6905.28 11.8337
6905.39 11.5750
6905.50 11.2703
6905.58 10.9962
6905.67 10.6976
6905.85 10.0367
6906.03 9.30383
6906.20 8.52912
6906.55 6.92214
6906.73 6.12873
6906.91 5.36997
6907.00 5.00192
6907.08 4.65017
6907.17 4.31161
6907.26 3.98715
6907.35 3.67408
6907.44 3.37997
6907.53 3.10157
6907.61 2.83906
6907.70 2.58978
6907.79 2.35922
6907.88 2.14426
6907.97 1.94458
6908.08 1.71380
6908.19 1.50735
6908.30 1.32188
6908.41 1.15611
6908.52 1.00742
6908.63 0.877075
6908.74 0.762252
6908.85 0.661555
6908.96 0.572882
6909.07 0.496518
6909.18 0.430373
6909.29 0.373289
6909.40 0.323780
6909.51 0.281743
6909.62 0.245801
6909.73 0.215141
6909.84 0.188821
6909.95 0.166666
6910.06 0.147851
6910.17 0.131878
6910.39 0.106690
6910.61 0.0885269
6910.83 0.0751615
6911.05 0.0652494
6911.27 0.0576652
6911.49 0.0517663
6911.82 0.0450963
6912.14 0.0400162
6912.79 0.0325883
6913.44 0.0272964
6914.08 0.0232912
6914.73 0.0201560
6915.38 0.0176442
6916.02 0.0155967
6916.67 0.0139064
6917.96 0.0112934
6919.26 0.00939772
6920.55 0.00797488
6921.84 0.00687419
6923.61 0.00572593
6925.37 0.00486604
6927.14 0.00420677
6928.90 0.00369018
6930.66 0.00327773
6932.43 0.00294337
6935.96 0.00244526
6939.48 0.00208832
6943.01 0.00182459
6946.54 0.00162580
6950.07 0.00147438
6956.65 0.00127048
6963.24 0.00112979
6969.83 0.00103013
6976.41 0.000957102
6989.58 0.000865027
7002.76 0.000805127
7029.10 0.000744357
7055.44 0.000724935
7074.26 0.000730890
7093.07 0.000762876
7102.48 0.000794348
7111.89 0.000865676
7116.60 0.000924102
7121.30 0.00102561
7123.65 0.00110072
7126.00 0.00120617
7128.36 0.00136014
7130.71 0.00159466
7132.59 0.00188260
7133.59 0.00209679
7134.59 0.00237748
7135.59 0.00275582
7136.59 0.00328388
7137.09 0.00363413
7137.59 0.00407133
7138.09 0.00464624
7138.59 0.00548188
7138.84 0.00608578
7139.09 0.00691079
7139.34 0.00808969
7139.59 0.00983694
7139.71 0.0110233
7139.84 0.0124917
7139.96 0.0143136
7140.09 0.0165768
7140.21 0.0193880
7140.34 0.0228763
7140.46 0.0271962
7140.59 0.0324841
7140.69 0.0377863
7140.79 0.0440619
7140.90 0.0514680
7141.00 0.0601809
7141.10 0.0703970
7141.21 0.0823336
7141.31 0.0962294
7141.41 0.112176
7141.51 0.130766
7141.62 0.152153
7141.82 0.204618
7142.03 0.272304
7142.23 0.357626
7142.44 0.464268
7142.65 0.594487
7142.85 0.750414
7143.06 0.932422
7143.26 1.14250
7143.47 1.37865
7143.67 1.63802
7143.88 1.91461
7144.44 2.70607
7144.58 2.89740
7144.72 3.07948
7144.86 3.24890
7145.00 3.40137
7145.12 3.51620
7145.23 3.61506
7145.35 3.69813
7145.47 3.76276
7145.56 3.80052
7145.65 3.82637
7145.73 3.83868
7145.77 3.84177
7145.80 3.84241
7145.84 3.84125
7145.89 3.83635
7145.98 3.81803
7146.10 3.77905
7146.21 3.72301
7146.36 3.61916
7146.52 3.48774
7146.67 3.33040
7146.82 3.15304
7146.97 2.97072
7147.11 2.77855
7147.40 2.37538
7147.68 1.96817
7147.83 1.77176
7147.97 1.58295
7148.09 1.42811
7148.21 1.28247
7148.34 1.14438
7148.46 1.01662
7148.62 0.859829
7148.79 0.720367
7148.94 0.604933
7149.09 0.504554
7149.25 0.417084
7149.40 0.342649
7149.55 0.279140
7149.71 0.226197
7149.86 0.181923
7150.01 0.145731
7150.17 0.116037
7150.32 0.0922067
7150.48 0.0729988
7150.63 0.0578441
7150.78 0.0458237
7150.94 0.0364808
7151.09 0.0292122
7151.24 0.0235884
7151.40 0.0192316
7151.55 0.0159104
7151.70 0.0133487
7151.86 0.0113974
7152.01 0.00988689
7152.16 0.00872642
7152.32 0.00781543
7152.47 0.00710156
7152.78 0.00606269
7153.08 0.00535276
7153.39 0.00483190
7153.70 0.00442628
7154.35 0.00377643
7155.01 0.00330111
7155.87 0.00283650
7156.73 0.00249013
7157.59 0.00222298
7158.44 0.00201265
7160.16 0.00170690
7161.88 0.00150074
7163.60 0.00135357
7165.32 0.00124343
7168.76 0.00109470
7172.19 0.00100393
7175.63 0.000944839
7182.51 0.000872036
7195.60 0.000819294
7208.69 0.000805749
7228.99 0.000825600
7249.29 0.000891559
7259.44 0.000956208
7269.59 0.00106707
7274.66 0.00114980
7279.73 0.00127454
7284.81 0.00145902
7287.34 0.00159407
7289.88 0.00177250
7293.16 0.00210231
7294.79 0.00232985
7296.43 0.00262304
7298.07 0.00301562
7299.70 0.00355746
7301.34 0.00433553
7302.16 0.00486050
7302.98 0.00552083
7303.75 0.00632591
7304.53 0.00738395
7305.31 0.00884228
7305.70 0.00982114
7306.09 0.0110905
7306.48 0.0128839
7306.67 0.0141148
7306.86 0.0156831
7307.06 0.0177513
7307.25 0.0205049
7307.45 0.0242430
7307.64 0.0293676
7307.84 0.0364692
7308.03 0.0462137
7308.13 0.0524498
7308.23 0.0596815
7308.32 0.0681335
7308.42 0.0779923
7308.52 0.0895943
7308.61 0.102937
7308.71 0.118389
7308.81 0.136232
7309.00 0.180356
7309.20 0.238104
7309.36 0.299902
7309.52 0.375842
7309.69 0.468188
7309.85 0.578534
7310.02 0.710542
7310.18 0.864773
7310.34 1.04506
7310.51 1.25075
7310.67 1.48539
7310.83 1.74811
7311.00 2.03838
7311.16 2.35271
7311.32 2.69236
7311.49 3.04950
7311.65 3.42364
7311.81 3.80429
7312.07 4.40302
7312.20 4.69471
7312.33 4.97589
7312.45 5.24244
7312.58 5.49023
7312.71 5.71531
7312.84 5.91251
7312.92 6.03086
7313.01 6.13449
7313.10 6.22255
7313.19 6.29434
7313.33 6.37544
7313.41 6.39957
7313.46 6.40800
7313.50 6.41015
7313.50 6.41016
7313.51 6.41004
7313.52 6.40972
7313.54 6.40853
7313.57 6.40366
7313.64 6.38799
7313.75 6.33790
7313.87 6.24797
7314.00 6.12514
7314.09 6.01228
7314.18 5.88277
7314.28 5.73781
7314.37 5.57869
7314.46 5.40682
7314.56 5.22368
7314.74 4.82978
7314.97 4.32167
7315.19 3.79956
7315.41 3.27881
7315.52 3.02536
7315.64 2.78120
7315.75 2.54352
7315.86 2.31590
7315.97 2.09941
7316.08 1.89667
7316.19 1.70462
7316.31 1.52705
7316.42 1.36093
7316.53 1.20919
7316.69 1.01036
7316.85 0.838348
7317.01 0.690292
7317.17 0.564296
7317.34 0.457654
7317.50 0.369472
7317.66 0.296832
7317.82 0.237610
7317.98 0.189544
7318.14 0.151393
7318.30 0.121193
7318.46 0.0975125
7318.63 0.0790174
7318.79 0.0648900
7318.95 0.0541379
7319.11 0.0460590
7319.26 0.0404764
7319.41 0.0363570
7319.56 0.0334364
7319.70 0.0315227
7319.85 0.0304897
7320.00 0.0302714
7320.15 0.0308592
7320.30 0.0322887
7320.52 0.0363044
7320.64 0.0393146
7320.75 0.0430962
7320.86 0.0478524
7320.97 0.0537156
7321.08 0.0608775
7321.19 0.0694760
7321.31 0.0799206
7321.42 0.0924332
7321.53 0.107344
7321.64 0.124849
7321.75 0.145672
7321.86 0.169879
7321.98 0.198391
7322.09 0.231215
7322.20 0.269494
7322.31 0.313544
7322.42 0.363975
7322.53 0.420865
7322.65 0.485865
7322.76 0.558424
7322.87 0.640447
7322.98 0.731023
7323.09 0.832292
7323.20 0.943922
7323.32 1.06626
7323.43 1.19831
7323.54 1.34256
7323.65 1.49640
7323.76 1.66238
7323.87 1.83718
7324.06 2.15315
7324.25 2.49063
7324.43 2.84568
7324.62 3.21117
7324.80 3.57857
7324.99 3.93819
7325.18 4.27963
7325.36 4.59222
7325.50 4.79791
7325.63 4.97720
7325.77 5.12922
7325.91 5.24878
7326.01 5.31874
7326.12 5.36740
7326.21 5.39080
7326.26 5.39770
7326.30 5.39964
7326.30 5.39965
7326.32 5.39923
7326.34 5.39802
7326.39 5.39077
7326.48 5.36734
7326.57 5.32948
7326.65 5.27751
7326.79 5.16850
7326.92 5.02908
7327.06 4.86124
7327.19 4.66813
7327.35 4.40426
7327.52 4.11509
7327.68 3.80776
7327.84 3.49140
7328.17 2.85074
7328.33 2.53845
7328.49 2.24076
7328.60 2.05472
7328.70 1.87829
7328.81 1.70880
7328.91 1.55000
7329.02 1.39921
7329.12 1.25953
7329.23 1.12955
7329.33 1.00926
7329.44 0.897488
7329.54 0.796119
7329.65 0.703732
7329.75 0.619946
7329.86 0.543645
7329.97 0.475793
7330.18 0.361156
7330.39 0.270791
7330.60 0.201468
7330.70 0.173062
7330.81 0.148678
7330.91 0.127616
7331.02 0.109493
7331.12 0.0938178
7331.23 0.0805625
7331.33 0.0692751
7331.44 0.0596929
7331.54 0.0515102
7331.65 0.0446717
7331.75 0.0389101
7331.86 0.0340647
7332.04 0.0274337
7332.22 0.0225434
7332.41 0.0189332
7332.59 0.0162553
7332.77 0.0142511
7332.95 0.0127309
7333.13 0.0115573
7333.31 0.0106364
7333.68 0.00927039
7334.04 0.00829585
7334.77 0.00693443
7335.50 0.00597637
7336.22 0.00525148
7336.95 0.00468061
7337.68 0.00422130
7339.13 0.00353115
7340.59 0.00304455
7342.04 0.00268655
7343.50 0.00241140
7345.72 0.00209697
7347.94 0.00187023
7350.16 0.00170283
7352.38 0.00157765
7356.82 0.00139217
7361.26 0.00126973
7365.71 0.00118685
7370.15 0.00113215
7379.03 0.00105150
7396.79 0.000980499
7414.56 0.000960032
7424.36 0.000958948
7452.54 0.000978584
7466.63 0.00100213
7473.67 0.00103427
7475.43 0.00105751
7476.31 0.00108512
7476.75 0.00111584
7477.19 0.00117806
7477.63 0.00130972
7477.85 0.00142238
7478.07 0.00158380
7478.29 0.00181229
7478.51 0.00213111
7478.73 0.00256890
7478.95 0.00315984
7479.17 0.00394727
7479.39 0.00496741
7479.61 0.00626849
7479.83 0.00789454
7480.05 0.00988459
7480.27 0.0122679
7480.49 0.0150587
7480.71 0.0182510
7481.14 0.0253612
7481.56 0.0332779
7481.98 0.0411369
7482.40 0.0478221
7482.48 0.0488277
7482.55 0.0497389
7482.71 0.0513063
7482.99 0.0531771
7483.13 0.0535347
7483.16 0.0535750
7483.20 0.0535864
7483.24 0.0535686
7483.34 0.0534046
7483.56 0.0523845
7483.62 0.0519615
7483.70 0.0512285
7483.82 0.0500471
7484.14 0.0457932
7484.46 0.0404146
7485.10 0.0283095
7485.57 0.0200708
7485.97 0.0142616
7486.16 0.0118449
7486.36 0.00975419
7486.56 0.00797758
7486.75 0.00649390
7486.95 0.00527557
7487.15 0.00429138
7487.35 0.00350890
7487.54 0.00289632
7487.74 0.00242386
7487.94 0.00206468
7488.13 0.00179532
7488.33 0.00159592
7488.53 0.00145005
7488.72 0.00134445
7489.12 0.00121470
7489.51 0.00114920
7490.30 0.00109833
7491.88 0.00107420
7498.18 0.00105599
7515.93 0.00108040
7533.68 0.00111932
7569.17 0.00121539
7604.67 0.00133863
7640.16 0.00150088
7657.44 0.00160405
7674.72 0.00174034
7683.36 0.00183534
7692.00 0.00197570
7700.64 0.00223488
7704.96 0.00249986
7707.12 0.00271090
7709.28 0.00303198
7710.39 0.00327198
7711.50 0.00359449
7712.61 0.00404766
7713.72 0.00472687
7714.28 0.00522273
7714.83 0.00594105
7715.11 0.00646542
7715.39 0.00718877
7715.66 0.00824382
7715.94 0.00984997
7716.08 0.0109690
7716.22 0.0123770
7716.36 0.0141532
7716.49 0.0163780
7716.63 0.0192041
7716.77 0.0227365
7716.91 0.0272044
7717.05 0.0327545
7717.19 0.0397198
7717.33 0.0483629
7717.47 0.0590304
7717.60 0.0720162
7717.74 0.0879573
7717.88 0.107122
7718.02 0.130342
7718.16 0.157881
7718.27 0.185205
7718.39 0.216607
7718.62 0.292951
7718.76 0.348362
7718.90 0.411986
7719.04 0.484456
7719.18 0.565701
7719.32 0.657344
7719.46 0.759137
7719.60 0.871214
7719.73 0.992590
7719.87 1.12472
7720.01 1.26621
7720.15 1.41621
7720.29 1.57246
7720.57 1.90221
7720.84 2.24105
7721.08 2.52111
7721.31 2.78159
7721.43 2.90157
7721.54 3.01230
7721.66 3.11232
7721.78 3.19961
7721.87 3.25964
7721.96 3.31046
7722.05 3.35233
7722.14 3.38490
7722.28 3.41607
7722.35 3.42278
7722.39 3.42445
7722.40 3.42450
7722.44 3.42354
7722.49 3.41961
7722.60 3.40002
7722.76 3.34957
7722.91 3.27291
7723.08 3.15778
7723.25 3.01623
7723.42 2.85173
7723.59 2.66884
7723.85 2.37476
7724.10 2.06788
7724.35 1.76038
7724.60 1.46715
7724.73 1.32749
7724.86 1.19560
7724.98 1.07107
7725.11 0.954445
7725.24 0.845232
7725.36 0.745332
7725.49 0.653874
7725.61 0.570747
7725.77 0.480119
7725.92 0.401460
7726.07 0.333394
7726.23 0.275061
7726.38 0.225245
7726.53 0.183644
7726.69 0.148970
7726.84 0.120325
7726.99 0.0967228
7727.15 0.0776878
7727.30 0.0623477
7727.45 0.0500785
7727.61 0.0402787
7727.76 0.0326042
7727.91 0.0265856
7728.07 0.0218899
7728.22 0.0182205
7728.37 0.0153989
7728.53 0.0132163
7728.68 0.0115277
7728.83 0.0102108
7728.99 0.00919251
7729.29 0.00776118
7729.60 0.00683944
7729.90 0.00621380
7730.52 0.00540490
7731.46 0.00465835
7732.39 0.00417062
7733.33 0.00382547
7734.27 0.00357213
7736.14 0.00323277
7738.02 0.00302664
7739.89 0.00290458
7741.77 0.00284282
7745.52 0.00282978
7748.19 0.00293661
7749.52 0.00305653
7750.86 0.00326448
7751.53 0.00344090
7752.19 0.00375985
7752.53 0.00405384
7752.86 0.00454296
7753.03 0.00490997
7753.19 0.00539750
7753.36 0.00604688
7753.53 0.00690591
7753.69 0.00805357
7753.86 0.00957279
7754.03 0.0115728
7754.19 0.0141706
7754.36 0.0175600
7754.53 0.0219227
7754.69 0.0274883
7754.86 0.0344747
7755.03 0.0432646
7755.19 0.0541534
7755.36 0.0675011
7755.53 0.0835817
7755.69 0.102975
7755.86 0.125976
7756.03 0.152939
7756.19 0.183977
7756.38 0.222909
7756.56 0.267061
7756.74 0.316644
7756.92 0.371469
7757.28 0.495290
7757.64 0.631452
7757.91 0.736217
7758.18 0.836504
7758.45 0.927022
7758.72 1.00118
7758.92 1.04250
7759.12 1.07053
7759.29 1.08334
7759.36 1.08553
7759.40 1.08579
7759.45 1.08523
7759.55 1.08140
7759.76 1.06158
7759.90 1.04025
7760.03 1.01279
7760.30 0.941941
7760.48 0.887049
7760.65 0.826617
7761.00 0.695594
7761.35 0.561424
7761.69 0.434797
7761.89 0.371390
7762.08 0.313700
7762.27 0.261864
7762.46 0.216083
7762.65 0.176121
7762.84 0.142156
7763.03 0.113572
7763.22 0.0898793
7763.41 0.0704366
7763.60 0.0548751
7763.79 0.0425212
7763.98 0.0328459
7764.17 0.0253670
7764.36 0.0196582
7764.55 0.0153521
7764.74 0.0121401
7764.93 0.00975770
7765.12 0.00802470
7765.31 0.00676542
7765.50 0.00585495
7765.69 0.00519523
7765.88 0.00472165
7766.07 0.00437774
7766.26 0.00412542
7766.64 0.00379388
7767.02 0.00359385
7767.78 0.00335998
7769.52 0.00309179
7771.26 0.00295751
7774.74 0.00283863
7781.69 0.00280756
7797.17 0.00296779
7812.64 0.00323390
7828.12 0.00361735
7835.86 0.00397767
7837.79 0.00413493
7839.73 0.00439391
7840.70 0.00462435
7841.18 0.00482196
7841.66 0.00517356
7841.91 0.00546813
7842.15 0.00590252
7842.39 0.00655224
7842.63 0.00752366
7842.87 0.00898414
7842.99 0.00996344
7843.11 0.0111539
7843.24 0.0125960
7843.36 0.0143365
7843.48 0.0164285
7843.60 0.0189095
7843.71 0.0215689
7843.82 0.0246705
7844.03 0.0324007
7844.25 0.0426971
7844.47 0.0560519
7844.69 0.0732227
7844.90 0.0946942
7845.12 0.121143
7845.34 0.153089
7845.55 0.191085
7845.77 0.234924
7845.99 0.284616
7846.21 0.339659
7846.64 0.462118
7847.07 0.589848
7847.28 0.647925
7847.49 0.701392
7847.70 0.748218
7847.90 0.786362
7848.08 0.810830
7848.25 0.827397
7848.40 0.834997
7848.47 0.836272
7848.50 0.836399
7848.55 0.836050
7848.64 0.833450
7848.83 0.820845
7849.08 0.789949
7849.32 0.744574
7849.64 0.669670
7849.95 0.582245
7850.58 0.398308
7850.83 0.329965
7851.08 0.267816
7851.33 0.213084
7851.58 0.166490
7851.84 0.127632
7852.09 0.0962396
7852.34 0.0715412
7852.46 0.0614499
7852.59 0.0526644
7852.71 0.0450054
7852.84 0.0384737
7852.96 0.0328469
7853.09 0.0281039
7853.22 0.0240643
7853.34 0.0206968
7853.47 0.0178801
7853.59 0.0155361
7853.72 0.0135809
7853.84 0.0119833
7853.97 0.0106628
7854.09 0.00959285
7854.34 0.00800903
7854.59 0.00697513
7854.84 0.00629910
7855.10 0.00585900
7855.60 0.00537656
7856.60 0.00501804
7858.60 0.00479823
7863.64 0.00472048
7867.42 0.00478624
7871.19 0.00489274
7874.97 0.00502509
7878.74 0.00517352
7882.52 0.00533531
7886.30 0.00550942
7890.07 0.00569570
7893.85 0.00589442
7895.74 0.00599866
7897.63 0.00610611
7899.51 0.00621691
7901.40 0.00633131
7903.29 0.00644948
7904.23 0.00650999
7905.18 0.00657147
7906.12 0.00663394
7907.07 0.00669740
7908.01 0.00676189
7908.95 0.00682743
7909.58 0.00687176
7910.25 0.00691938
7910.92 0.00696756
7911.59 0.00701630
7912.26 0.00706555
7912.93 0.00711545
7913.60 0.00716593
7914.93 0.00726860
7916.27 0.00737378
7917.61 0.00748140
7918.95 0.00759161
7920.28 0.00770452
7921.46 0.00780658
7922.64 0.00791083
7925.00 0.00812644
7927.36 0.00835157
7929.72 0.00858679
7932.08 0.00883282
7934.44 0.00909009
7936.80 0.00935975
7939.16 0.00964281
7940.90 0.00985930
7942.63 0.0100837
7944.36 0.0103164
7946.09 0.0105578
7947.82 0.0108084
7949.55 0.0110687
7951.28 0.0113391
7953.01 0.0116201
7954.74 0.0119126
7956.47 0.0122171
7958.20 0.0125342
7959.93 0.0128646
7961.67 0.0132094
7963.40 0.0135693
7965.13 0.0139452
7966.86 0.0143382
7968.59 0.0147496
7970.32 0.0151808
7972.05 0.0156329
7973.78 0.0161076
7975.51 0.0166071
7977.24 0.0171332
7978.97 0.0176886
7980.70 0.0182757
7982.43 0.0188988
7984.17 0.0195619
7985.90 0.0202705
7987.63 0.0210312
7989.36 0.0218548
7991.09 0.0227544
7992.82 0.0237504
7994.55 0.0248743
7995.65 0.0256801
7996.75 0.0265793
7997.85 0.0276069
7998.96 0.0288165
8000.06 0.0303084
8001.16 0.0322867
8002.26 0.0355183
8002.81 0.0387081
8003.09 0.0413456
8003.36 0.0452751
8003.64 0.0512983
8003.91 0.0605577
8004.05 0.0669523
8004.19 0.0748814
8004.33 0.0846852
8004.46 0.0966662
8004.60 0.111460
8004.74 0.129522
8004.88 0.151458
8005.01 0.177739
8005.15 0.209499
8005.29 0.247095
8005.43 0.291960
8005.56 0.344380
8005.70 0.406100
8005.84 0.477780
8005.98 0.560427
8006.12 0.654288
8006.25 0.761640
8006.39 0.882652
8006.53 1.01799
8006.67 1.16700
8006.80 1.33210
8006.94 1.51223
8007.08 1.70706
8007.22 1.91434
8007.36 2.13605
8007.49 2.36752
8007.63 2.61030
8007.77 2.85864
8008.06 3.40551
8008.36 3.94306
8008.51 4.19824
8008.65 4.43604
8008.80 4.65515
8008.95 4.84833
8009.06 4.97351
8009.16 5.08080
8009.27 5.17018
8009.38 5.24063
8009.46 5.28181
8009.55 5.31047
8009.62 5.32564
8009.67 5.33033
8009.70 5.33137
8009.74 5.32987
8009.78 5.32508
8009.87 5.30684
8009.97 5.26623
8010.08 5.20732
8010.20 5.11114
8010.33 4.98974
8010.46 4.84506
8010.58 4.67934
8010.76 4.41491
8010.94 4.12137
8011.11 3.83199
8011.27 3.53300
8011.60 2.92514
8011.76 2.62540
8011.93 2.33775
8012.09 2.06412
8012.26 1.80745
8012.42 1.56853
8012.58 1.35164
8012.75 1.15593
8012.91 0.981436
8013.08 0.826791
8013.24 0.692923
8013.41 0.577568
8013.57 0.479232
8013.70 0.409904
8013.84 0.350470
8013.97 0.299102
8014.11 0.255653
8014.24 0.218592
8014.38 0.187645
8014.51 0.161753
8014.64 0.140219
8014.78 0.122292
8014.91 0.107670
8015.05 0.0956290
8015.18 0.0859087
8015.45 0.0716383
8015.72 0.0624580
8015.99 0.0565787
8016.26 0.0528568
8016.79 0.0490094
8017.87 0.0467315
8019.12 0.0464268
8020.38 0.0469110
8021.63 0.0478249
8022.89 0.0490330
8024.14 0.0504684
8025.39 0.0520955
8026.65 0.0538957
8027.90 0.0558609
8029.22 0.0580951
8030.53 0.0605118
8031.84 0.0631181
8033.16 0.0659224
8034.47 0.0689423
8035.79 0.0721919
8037.10 0.0756898
8038.41 0.0794546
8039.73 0.0835168
8041.04 0.0879014
8042.35 0.0926400
8043.67 0.0977682
8044.98 0.103326
8046.30 0.109360
8047.61 0.115920
8048.92 0.123066
8050.24 0.130862
8050.90 0.135027
8051.55 0.139384
8052.21 0.143943
8052.87 0.148716
8053.52 0.153714
8054.18 0.158944
8054.84 0.164435
8055.49 0.170194
8056.15 0.176237
8056.81 0.182579
8057.46 0.189240
8058.12 0.196237
8058.78 0.203591
8059.43 0.211310
8060.09 0.219440
8060.75 0.227992
8061.41 0.236990
8062.06 0.246461
8062.72 0.256429
8063.38 0.266923
8064.03 0.277971
8064.69 0.289600
8065.35 0.301840
8066.00 0.314719
8066.66 0.328266
8067.32 0.342509
8067.98 0.357471
8068.63 0.373178
8069.29 0.389648
8069.95 0.406869
8070.65 0.426251
8071.35 0.446511
8072.06 0.467663
8072.76 0.489681
8073.47 0.512551
8074.17 0.536138
8075.58 0.585151
8076.99 0.635670
8078.40 0.685962
8079.81 0.733862
8080.51 0.756055
8081.21 0.776607
8081.80 0.792199
8082.39 0.806195
8082.97 0.818400
8083.56 0.828636
8084.14 0.836747
8084.73 0.842609
8085.32 0.846126
8085.90 0.847242
8086.84 0.844006
8087.60 0.836906
8088.36 0.825999
8089.12 0.811568
8089.89 0.794001
8090.65 0.773670
8091.41 0.751049
8092.17 0.726604
8092.93 0.700830
8094.46 0.646836
8095.98 0.592107
8097.50 0.538800
8099.03 0.488438
8100.07 0.456165
8101.11 0.425825
8102.15 0.397457
8103.19 0.371052
8104.24 0.346570
8105.28 0.323935
8106.32 0.303046
8107.36 0.283808
8108.17 0.269926
8108.98 0.256912
8109.78 0.244678
8110.59 0.233200
8111.40 0.222400
8112.21 0.212261
8113.01 0.202718
8113.82 0.193753
8114.63 0.185308
8115.44 0.177367
8117.05 0.162827
8118.67 0.149890
8120.28 0.138350
8122.06 0.127050
8123.83 0.117025
8125.61 0.108090
8127.39 0.100110
8129.16 0.0929506
8130.94 0.0865156
8132.72 0.0807105
8134.49 0.0754587
8136.27 0.0706916
8138.04 0.0663580
8139.82 0.0624039
8141.60 0.0587913
8143.37 0.0554794
8145.15 0.0524398
8146.93 0.0496425
8148.70 0.0470632
8150.24 0.0449937
8151.77 0.0430628
8154.84 0.0395612
8157.91 0.0364632
8160.98 0.0337189
8164.05 0.0312769
8167.11 0.0290964
8170.18 0.0271412
8173.25 0.0253817
8176.80 0.0235560
8180.36 0.0219271
8183.91 0.0204680
8187.46 0.0191563
8191.01 0.0179731
8194.57 0.0169023
8198.12 0.0159304
8201.67 0.0150461
8206.52 0.0139629
8211.36 0.0130028
8216.21 0.0121485
8221.05 0.0113903
8225.90 0.0107077
8230.74 0.0100949
8235.59 0.00954581
8240.43 0.00905645
8248.18 0.00839873
8255.93 0.00804503
8258.03 0.00816379
8259.08 0.00848173
8259.61 0.00897691
8259.87 0.00944803
8260.13 0.0101872
8260.39 0.0113457
8260.66 0.0131269
8260.92 0.0158443
8261.05 0.0176675
8261.18 0.0198832
8261.31 0.0225843
8261.44 0.0258096
8261.58 0.0296657
8261.71 0.0342494
8261.84 0.0397110
8261.97 0.0460811
8262.10 0.0535172
8262.23 0.0621434
8262.36 0.0721679
8262.49 0.0835665
8262.76 0.111187
8263.02 0.146111
8263.28 0.188717
8263.54 0.239580
8263.81 0.298015
8264.07 0.363236
8264.33 0.433535
8264.73 0.546024
8265.14 0.652857
8265.48 0.729276
8265.65 0.759769
8265.83 0.783841
8266.11 0.808182
8266.23 0.812430
8266.29 0.813107
8266.30 0.813124
8266.33 0.813031
8266.35 0.812772
8266.45 0.810319
8266.54 0.805550
8266.70 0.792337
8266.86 0.773091
8267.02 0.746459
8267.19 0.714168
8267.53 0.636287
8267.90 0.535955
8268.27 0.432053
8268.65 0.333224
8269.02 0.246557
8269.40 0.175127
8269.58 0.145551
8269.77 0.120081
8269.96 0.0982232
8270.14 0.0798312
8270.33 0.0645643
8270.52 0.0521184
8270.65 0.0445377
8270.79 0.0381290
8270.92 0.0326657
8271.06 0.0281056
8271.19 0.0242664
8271.33 0.0211004
8271.46 0.0184834
8271.60 0.0163319
8271.73 0.0145604
8271.87 0.0131302
8272.14 0.0110288
8272.41 0.00966901
8272.68 0.00879872
8272.95 0.00823722
8273.22 0.00787224
8273.76 0.00746011
8274.85 0.00709688
8279.18 0.00653430
8287.84 0.00605610
8292.62 0.00596926
8295.08 0.00604473
8296.32 0.00617247
8296.93 0.00631031
8297.55 0.00661458
8297.86 0.00691653
8298.16 0.00741998
8298.47 0.00826569
8298.63 0.00888285
8298.78 0.00967817
8298.93 0.0106986
8299.09 0.0120013
8299.24 0.0136546
8299.40 0.0157395
8299.55 0.0183508
8299.70 0.0215980
8299.86 0.0256055
8300.01 0.0305129
8300.17 0.0364741
8300.32 0.0436556
8300.47 0.0522342
8300.63 0.0623934
8300.78 0.0743184
8300.94 0.0881903
8301.09 0.104179
8301.24 0.122436
8301.55 0.166202
8301.86 0.219954
8302.17 0.283250
8302.48 0.354501
8303.11 0.512905
8303.43 0.588120
8303.75 0.652611
8304.01 0.693866
8304.27 0.721626
8304.46 0.732509
8304.56 0.734470
8304.60 0.734696
8304.67 0.734136
8304.79 0.730602
8305.00 0.715530
8305.29 0.680291
8305.57 0.630200
8305.81 0.580024
8306.04 0.524698
8306.51 0.407221
8306.79 0.339386
8307.06 0.276455
8307.34 0.220097
8307.62 0.171410
8307.89 0.130619
8308.17 0.0977660
8308.44 0.0720068
8308.58 0.0614984
8308.72 0.0523985
8308.86 0.0445213
8309.00 0.0378471
8309.14 0.0321865
8309.27 0.0274174
8309.41 0.0234251
8309.55 0.0201041
8309.69 0.0173581
8309.83 0.0151009
8309.96 0.0132557
8310.10 0.0117550
8310.24 0.0105405
8310.38 0.00956175
8310.65 0.00814708
8310.93 0.00724420
8311.21 0.00666776
8311.48 0.00629934
8312.03 0.00589267
8313.14 0.00555362
8315.35 0.00525054
8322.58 0.00483521
8329.81 0.00460925
8337.04 0.00443641
8344.28 0.00429447
8358.74 0.00406368
8373.20 0.00389357
8381.77 0.00381816
8390.34 0.00376082
8407.49 0.00370529
8423.02 0.00376981
8426.90 0.00383716
8430.79 0.00398594
8432.73 0.00413311
8433.70 0.00426803
8434.19 0.00438716
8434.67 0.00460180
8435.16 0.00504671
8435.40 0.00544107
8435.64 0.00602758
8435.89 0.00690462
8436.13 0.00820111
8436.37 0.0100950
8436.49 0.0113313
8436.61 0.0128079
8436.74 0.0145799
8436.86 0.0166623
8436.98 0.0191387
8437.10 0.0220217
8437.22 0.0254173
8437.34 0.0293317
8437.46 0.0338557
8437.59 0.0390575
8437.83 0.0518359
8438.07 0.0681316
8438.31 0.0886244
8438.56 0.113603
8438.89 0.156233
8439.23 0.208208
8439.56 0.268434
8439.89 0.334251
8440.46 0.448294
8440.75 0.499740
8441.03 0.542753
8441.27 0.569937
8441.50 0.587956
8441.68 0.594999
8441.77 0.596317
8441.80 0.596412
8441.87 0.596005
8441.98 0.593453
8442.12 0.586701
8442.34 0.568903
8442.57 0.543082
8442.93 0.485912
8443.30 0.416770
8443.85 0.305744
8444.12 0.252846
8444.40 0.204378
8444.67 0.161573
8444.95 0.125045
8445.22 0.0948675
8445.50 0.0707745
8445.64 0.0607091
8445.77 0.0519638
8445.91 0.0443086
8446.05 0.0377505
8446.19 0.0320888
8446.32 0.0273042
8446.46 0.0232283
8446.60 0.0198285
8446.74 0.0169692
8446.87 0.0146137
8447.01 0.0126566
8447.15 0.0110631
8447.29 0.00975397
8447.42 0.00869947
8447.56 0.00784738
8447.70 0.00716189
8447.96 0.00620854
8448.22 0.00559111
8448.48 0.00519354
8448.74 0.00493791
8449.27 0.00465892
8449.79 0.00452750
8451.88 0.00435476
8455.65 0.00433651
8459.42 0.00444772
8463.19 0.00465404
8466.96 0.00497358
8470.73 0.00546636
8474.50 0.00625138
8476.39 0.00682552
8478.27 0.00761393
8480.16 0.00873088
8482.04 0.0103738
8483.09 0.0116483
8484.14 0.0133247
8485.18 0.0156108
8486.23 0.0188716
8486.70 0.0208358
8487.17 0.0232621
8487.64 0.0263778
8488.12 0.0306097
8488.59 0.0368341
8488.82 0.0411870
8489.06 0.0467803
8489.29 0.0541575
8489.53 0.0639356
8489.77 0.0771224
8490.00 0.0948253
8490.18 0.112878
8490.37 0.135482
8490.55 0.163808
8490.73 0.199118
8490.83 0.219953
8490.92 0.243112
8491.01 0.268803
8491.10 0.296920
8491.19 0.328305
8491.28 0.362501
8491.38 0.400497
8491.47 0.441701
8491.56 0.487258
8491.65 0.536977
8491.74 0.591091
8491.83 0.649165
8491.93 0.712690
8492.02 0.780481
8492.11 0.854210
8492.20 0.932430
8492.29 1.01699
8492.38 1.10717
8492.48 1.20303
8492.57 1.30346
8492.66 1.41066
8492.75 1.52222
8492.84 1.64049
8492.93 1.76273
8493.08 1.97646
8493.23 2.20105
8493.38 2.43767
8493.53 2.68097
8494.14 3.68104
8494.28 3.90928
8494.42 4.12627
8494.57 4.32852
8494.71 4.51265
8494.86 4.67546
8495.00 4.81404
8495.10 4.89318
8495.20 4.95923
8495.34 5.03137
8495.47 5.07081
8495.60 5.08293
8495.61 5.08291
8495.62 5.08258
8495.64 5.08191
8495.67 5.07954
8495.73 5.07047
8495.85 5.03611
8495.97 4.97635
8496.07 4.91432
8496.17 4.83986
8496.31 4.71279
8496.45 4.56285
8496.57 4.40677
8496.70 4.23696
8496.83 4.05297
8496.95 3.86002
8497.10 3.62005
8497.25 3.37433
8497.55 2.87395
8497.70 2.62613
8497.85 2.38610
8498.00 2.15315
8498.15 1.93250
8498.32 1.69190
8498.41 1.57909
8498.49 1.47104
8498.58 1.36667
8498.67 1.26847
8498.75 1.17526
8498.84 1.08702
8498.92 1.00280
8499.01 0.924468
8499.10 0.850939
8499.18 0.782102
8499.27 0.717107
8499.36 0.657296
8499.44 0.601734
8499.53 0.550245
8499.61 0.502115
8499.70 0.458255
8499.79 0.417898
8499.87 0.380845
8499.96 0.346523
8500.05 0.315523
8500.13 0.287241
8500.22 0.261488
8500.39 0.216615
8500.56 0.180037
8500.73 0.150216
8500.91 0.126030
8501.03 0.111208
8501.16 0.0986638
8501.41 0.0787881
8501.67 0.0643694
8501.92 0.0538650
8502.17 0.0461348
8502.42 0.0403552
8502.68 0.0359431
8502.93 0.0325047
8503.44 0.0274561
8503.94 0.0238990
8504.45 0.0212104
8504.95 0.0190873
8505.96 0.0159169
8506.98 0.0136763
8507.99 0.0120173
8509.00 0.0107513
8510.75 0.00917067
8512.49 0.00809177
8514.24 0.00732702
8515.99 0.00675875
8519.48 0.00598664
8522.98 0.00551776
8526.47 0.00522342
8529.97 0.00503790
8536.95 0.00486882
8542.84 0.00486233
8551.67 0.00503931
8560.49 0.00551258
8564.91 0.00596732
8569.32 0.00675117
8571.53 0.00736088
8573.74 0.00823409
8575.94 0.00958223
8577.05 0.0105471
8578.15 0.0118154
8579.44 0.0138903
8580.08 0.0152960
8580.72 0.0170731
8581.37 0.0194160
8582.01 0.0227441
8582.33 0.0250790
8582.66 0.0282061
8582.98 0.0326242
8583.30 0.0391559
8583.55 0.0466870
8583.81 0.0574225
8583.93 0.0644623
8584.06 0.0728369
8584.19 0.0829562
8584.31 0.0949793
8584.44 0.109470
8584.56 0.126622
8584.69 0.147194
8584.82 0.171406
8584.94 0.200257
8585.07 0.233967
8585.20 0.273483
8585.32 0.319606
8585.45 0.373657
8585.58 0.435707
8585.70 0.507722
8585.83 0.589571
8585.96 0.683589
8586.08 0.789317
8586.21 0.909444
8586.33 1.04303
8586.46 1.19309
8586.59 1.35802
8586.71 1.54108
8586.84 1.73984
8586.97 1.95770
8587.09 2.19124
8587.22 2.44181
8587.35 2.70885
8587.44 2.91372
8587.53 3.12643
8587.71 3.57299
8587.90 4.04276
8588.08 4.52837
8588.45 5.51037
8588.63 5.98550
8588.82 6.43233
8588.97 6.77128
8589.12 7.07701
8589.27 7.34780
8589.41 7.57479
8589.54 7.73182
8589.67 7.85203
8589.79 7.93555
8589.87 7.96659
8589.93 7.98167
8590.00 7.98764
8590.00 7.98767
8590.02 7.98729
8590.03 7.98629
8590.07 7.98239
8590.12 7.97123
8590.19 7.94205
8590.30 7.87545
8590.41 7.77922
8590.52 7.65496
8590.64 7.50405
8590.75 7.32818
8590.86 7.12929
8590.97 6.91159
8591.11 6.59711
8591.26 6.25643
8591.40 5.89527
8591.55 5.51942
8592.13 3.98190
8592.34 3.44326
8592.45 3.18473
8592.55 2.93807
8592.66 2.69955
8592.77 2.47436
8592.87 2.25879
8592.98 2.05726
8593.09 1.86620
8593.19 1.68926
8593.30 1.52305
8593.40 1.37050
8593.51 1.22847
8593.62 1.09924
8593.72 0.979937
8593.83 0.872293
8593.94 0.773728
8594.04 0.685508
8594.15 0.605362
8594.26 0.534181
8594.36 0.470002
8594.47 0.413421
8594.58 0.362772
8594.68 0.318432
8594.90 0.244722
8595.11 0.188243
8595.32 0.145461
8595.53 0.113377
8595.72 0.0919572
8595.91 0.0756185
8596.10 0.0630573
8596.28 0.0535096
8596.47 0.0461602
8596.66 0.0405362
8596.85 0.0361516
8597.03 0.0327320
8597.41 0.0278013
8597.78 0.0244702
8598.16 0.0220532
8598.53 0.0201915
8599.28 0.0174196
8600.03 0.0154134
8600.78 0.0138862
8601.53 0.0126915
8603.03 0.0109617
8604.53 0.00979267
8606.03 0.00895937
8607.53 0.00834570
8610.26 0.00759473
8612.98 0.00714084
8618.43 0.00664759
8623.89 0.00645209
8629.34 0.00640977
8633.43 0.00643844
8637.52 0.00650282
8641.61 0.00659480
8645.70 0.00670907
8649.79 0.00684219
8653.88 0.00699378
8655.92 0.00707580
8657.97 0.00716178
8660.01 0.00725176
8662.05 0.00734561
8665.05 0.00749040
8668.05 0.00764369
8671.05 0.00780559
8674.05 0.00797633
8677.05 0.00815619
8680.05 0.00834551
8683.05 0.00854471
8684.55 0.00864813
8686.05 0.00875419
8687.95 0.00889314
8689.86 0.00903661
8690.82 0.00911025
8691.77 0.00918506
8692.73 0.00926114
8693.68 0.00933851
8694.57 0.00941155
8695.45 0.00948576
8696.34 0.00956117
8697.22 0.00963781
8698.11 0.00971572
8699.00 0.00979494
8700.77 0.00995749
8702.54 0.0101260
8704.31 0.0103009
8706.08 0.0104827
8707.86 0.0106723
8710.17 0.0109343
8712.49 0.0112162
8714.81 0.0115265
8717.13 0.0118821
8718.28 0.0120883
8719.44 0.0123258
8720.60 0.0126149
8721.76 0.0130306
8722.34 0.0134034
8722.92 0.0141502
8723.21 0.0148378
8723.50 0.0159089
8723.79 0.0175942
8724.08 0.0202072
8724.37 0.0242274
8724.51 0.0269511
8724.66 0.0302740
8724.80 0.0343038
8724.95 0.0391601
8725.09 0.0449744
8725.24 0.0518371
8725.38 0.0599939
8725.53 0.0695592
8725.67 0.0806946
8725.82 0.0934669
8726.11 0.124987
8726.39 0.164988
8726.69 0.216161
8726.99 0.277191
8727.29 0.347457
8727.59 0.425101
8728.18 0.589738
8728.48 0.667561
8728.78 0.735712
8729.05 0.785433
8729.33 0.819574
8729.56 0.835019
8729.65 0.837144
8729.70 0.837430
8729.77 0.836824
8729.89 0.833017
8730.17 0.809502
8730.35 0.784424
8730.54 0.752407
8730.77 0.702875
8731.01 0.645837
8731.47 0.519464
8731.94 0.392088
8732.17 0.332794
8732.41 0.278590
8732.71 0.217014
8733.01 0.165799
8733.31 0.124467
8733.46 0.107394
8733.61 0.0924773
8733.76 0.0794734
8733.91 0.0683787
8734.06 0.0589214
8734.21 0.0509232
8734.36 0.0441705
8734.51 0.0385877
8734.66 0.0339731
8734.81 0.0301864
8734.96 0.0270828
8735.11 0.0245901
8735.41 0.0209871
8735.71 0.0187104
8736.01 0.0173138
8736.31 0.0164683
8736.61 0.0159680
8737.21 0.0155037
8738.68 0.0153098
8740.15 0.0153920
8741.62 0.0155542
8743.09 0.0157606
8744.56 0.0159964
8746.03 0.0162539
8747.50 0.0165291
8748.96 0.0168193
8750.30 0.0170957
8751.63 0.0173828
8752.97 0.0176802
8754.30 0.0179878
8755.64 0.0183057
8756.98 0.0186339
8758.31 0.0189725
8759.65 0.0193220
8760.98 0.0196827
8762.32 0.0200546
8763.65 0.0204382
8764.99 0.0208338
8766.32 0.0212423
8767.66 0.0216635
8768.99 0.0220981
8770.33 0.0225467
8771.80 0.0230570
8773.27 0.0235858
8774.73 0.0241337
8776.20 0.0247013
8777.67 0.0252902
8779.14 0.0259011
8780.61 0.0265351
8782.08 0.0271928
8783.55 0.0278763
8785.02 0.0285864
8786.48 0.0293245
8787.95 0.0300915
8789.42 0.0308899
8790.89 0.0317204
8792.36 0.0325858
8793.83 0.0334867
8795.30 0.0344264
8796.76 0.0354063
8798.23 0.0364289
8799.70 0.0374956
8801.17 0.0386106
8802.64 0.0397759
8804.11 0.0409945
8805.58 0.0422687
8807.05 0.0436037
8808.51 0.0450022
8809.98 0.0464682
8811.45 0.0480050
8812.92 0.0496190
8814.39 0.0513144
8815.86 0.0530963
8817.33 0.0549690
8819.06 0.0573102
8820.80 0.0597968
8822.53 0.0624418
8824.27 0.0652612
8826.01 0.0682736
8827.74 0.0714897
8829.48 0.0749304
8831.21 0.0786111
8832.68 0.0819325
8834.15 0.0854571
8835.62 0.0892004
8837.09 0.0931791
8838.56 0.0974115
8840.03 0.101918
8841.49 0.106719
8842.96 0.111835
8844.43 0.117298
8845.90 0.123131
8847.37 0.129365
8848.84 0.136025
8850.31 0.143155
8851.77 0.150781
8853.24 0.158950
8854.71 0.167692
8856.18 0.177059
8857.65 0.187088
8859.12 0.197821
8860.59 0.209292
8862.06 0.221554
8863.52 0.234628
8864.99 0.248562
8866.46 0.263357
8867.64 0.275920
8868.83 0.289024
8870.01 0.302662
8871.19 0.316807
8872.38 0.331417
8873.56 0.346432
8875.93 0.377339
8878.29 0.408670
8880.66 0.439148
8883.02 0.467161
8884.21 0.479673
8885.39 0.490874
8886.97 0.503383
8888.55 0.512665
8890.12 0.518346
8891.70 0.520174
8893.28 0.518070
8894.86 0.512127
8896.14 0.504639
8897.42 0.494985
8898.70 0.483417
8899.98 0.470229
8901.26 0.455699
8902.55 0.440139
8905.11 0.407088
8910.24 0.339801
8912.80 0.308051
8915.36 0.278665
8917.89 0.252294
8920.41 0.228464
8922.93 0.207090
8925.45 0.188014
8927.97 0.171032
8930.50 0.155934
8933.02 0.142509
8935.54 0.130563
8938.10 0.119775
8940.65 0.110163
8943.21 0.101578
8945.77 0.0938927
8948.33 0.0869929
8950.88 0.0807878
8953.44 0.0751913
8956.00 0.0701312
8958.56 0.0655429
8961.11 0.0613758
8963.67 0.0575807
8966.23 0.0541164
8968.78 0.0509472
8971.34 0.0480417
8973.90 0.0453724
8976.45 0.0429152
8980.64 0.0392973
8984.82 0.0361244
8989.01 0.0333110
8993.19 0.0308083
8997.38 0.0285766
9001.56 0.0265805
9005.75 0.0247890
9009.93 0.0231783
9014.81 0.0215025
9019.70 0.0200302
9024.58 0.0187877
9027.02 0.0183299
9028.24 0.0182587
9028.85 0.0184308
9029.46 0.0191040
9029.78 0.0199083
9030.10 0.0212893
9030.42 0.0235801
9030.74 0.0272431
9030.90 0.0297936
9031.06 0.0329476
9031.22 0.0368156
9031.38 0.0415190
9031.54 0.0471893
9031.70 0.0539662
9031.86 0.0619941
9032.02 0.0713559
9032.18 0.0823113
9032.34 0.0949401
9032.66 0.125672
9032.98 0.164193
9033.30 0.210394
9033.62 0.263801
9033.94 0.322363
9034.57 0.443965
9034.81 0.485007
9035.04 0.521547
9035.27 0.552317
9035.50 0.575669
9035.79 0.593006
9035.92 0.596083
9035.99 0.596644
9036.00 0.596648
9036.00 0.596645
9036.02 0.596607
9036.04 0.596525
9036.07 0.596237
9036.09 0.595867
9036.17 0.594198
9036.24 0.591610
9036.45 0.579472
9036.65 0.560693
9036.99 0.516305
9037.28 0.470154
9037.56 0.418457
9038.13 0.310072
9038.41 0.258501
9038.69 0.211255
9038.97 0.169515
9039.26 0.133866
9039.54 0.104379
9039.82 0.0807199
9040.11 0.0622848
9040.39 0.0483176
9040.67 0.0380168
9040.96 0.0306126
9041.24 0.0254176
9041.52 0.0218632
9041.75 0.0198249
9041.98 0.0183730
9042.45 0.0166089
9042.91 0.0157212
9043.37 0.0152520
9045.22 0.0144955
9048.93 0.0136746
9056.34 0.0124445
9063.74 0.0114239
9071.15 0.0105387
9077.19 0.00989676
9083.23 0.00931492
9089.26 0.00878543
9095.30 0.00830210
9101.33 0.00785935
9107.37 0.00745301
9119.44 0.00673410
9130.97 0.00614846
9142.49 0.00563795
9154.01 0.00519431
9165.54 0.00480362
9177.06 0.00445906
9188.59 0.00415500
9200.11 0.00388361
9211.63 0.00364075
9223.71 0.00341403
9235.78 0.00321038
9247.85 0.00302729
9259.92 0.00286270
9272.00 0.00271328
9284.07 0.00257817
9308.21 0.00234323
9329.07 0.00217251
9349.92 0.00202639
9370.77 0.00189993
9391.62 0.00179158
9412.48 0.00169799
9433.33 0.00161732
9454.18 0.00154847
9475.03 0.00149126
9501.37 0.00143698
9527.71 0.00141164
9540.33 0.00141915
9552.96 0.00145833
9559.27 0.00150303
9565.58 0.00158345
9571.89 0.00173908
9575.04 0.00187107
9578.20 0.00207264
9580.94 0.00235909
9582.31 0.00256597
9583.69 0.00283844
9585.06 0.00320971
9586.43 0.00373970
9587.12 0.00409584
9587.80 0.00454225
9588.49 0.00511976
9589.17 0.00591793
9589.50 0.00643666
9589.82 0.00711407
9590.15 0.00805115
9590.48 0.00942462
9590.64 0.0103630
9590.80 0.0115381
9590.97 0.0130205
9591.13 0.0149002
9591.29 0.0172911
9591.45 0.0203362
9591.62 0.0242131
9591.78 0.0291064
9591.94 0.0353408
9592.11 0.0432097
9592.27 0.0530943
9592.43 0.0654435
9592.59 0.0807792
9592.76 0.0997003
9592.92 0.122885
9593.08 0.151089
9593.25 0.185143
9593.41 0.225941
9593.57 0.274430
9593.74 0.331587
9593.90 0.398399
9594.06 0.475825
9594.22 0.564766
9594.39 0.665358
9594.52 0.761121
9594.66 0.865659
9594.80 0.979788
9594.94 1.10353
9595.07 1.23673
9595.21 1.37907
9595.35 1.53004
9595.48 1.68892
9595.76 2.02773
9596.03 2.38305
9596.31 2.74296
9596.58 3.09191
9596.80 3.34699
9597.01 3.57549
9597.12 3.67869
9597.22 3.77165
9597.33 3.85455
9597.44 3.92661
9597.59 4.00996
9597.75 4.06785
9597.88 4.09589
9597.94 4.10300
9597.99 4.10483
9598.00 4.10485
9598.01 4.10475
9598.03 4.10448
9598.05 4.10344
9598.11 4.09730
9598.23 4.07404
9598.38 4.02426
9598.52 3.95195
9598.72 3.81966
9598.91 3.65216
9599.11 3.45455
9599.30 3.23383
9599.51 2.97751
9599.72 2.70828
9600.14 2.16053
9600.35 1.89510
9600.56 1.64249
9600.77 1.40673
9600.97 1.19070
9601.18 0.996203
9601.39 0.823987
9601.60 0.673942
9601.81 0.545236
9602.02 0.436490
9602.23 0.345946
9602.44 0.271625
9602.65 0.211459
9602.86 0.163400
9603.06 0.125508
9603.27 0.0959996
9603.48 0.0732912
9603.69 0.0560087
9603.90 0.0429890
9604.11 0.0332693
9604.32 0.0260681
9604.53 0.0207637
9604.74 0.0168857
9604.94 0.0140247
9605.15 0.0119195
9605.36 0.0103595
9605.57 0.00919010
9605.78 0.00829933
9605.99 0.00760704
9606.41 0.00660785
9606.83 0.00591368
9607.24 0.00538933
9608.08 0.00461891
9608.92 0.00406316
9609.75 0.00364082
9611.42 0.00304466
9613.09 0.00264801
9614.77 0.00236971
9616.44 0.00216763
9618.11 0.00201712
9622.29 0.00176900
9626.47 0.00162640
9634.83 0.00146658
9643.18 0.00138695
9651.54 0.00134290
9668.26 0.00130244
9684.98 0.00129245
9709.21 0.00131325
9733.45 0.00138092
9745.57 0.00144611
9757.69 0.00155745
9763.75 0.00164484
9769.81 0.00177003
9775.87 0.00195979
9778.90 0.00208542
9781.93 0.00225482
9784.44 0.00244112
9786.95 0.00268576
9789.45 0.00301514
9791.96 0.00346823
9794.47 0.00413543
9795.72 0.00459776
9796.98 0.00518524
9798.23 0.00595000
9799.48 0.00697730
9800.74 0.00841405
9801.36 0.00936221
9801.99 0.0105310
9802.83 0.0126074
9803.24 0.0139975
9803.66 0.0157883
9803.99 0.0176362
9804.32 0.0201114
9804.64 0.0236153
9804.81 0.0259294
9804.97 0.0287625
9805.13 0.0322800
9805.30 0.0366176
9805.46 0.0420159
9805.62 0.0487483
9805.79 0.0572064
9805.95 0.0676941
9806.11 0.0807436
9806.27 0.0969314
9806.44 0.117070
9806.60 0.141703
9806.76 0.171840
9806.93 0.208498
9807.09 0.253105
9807.25 0.306369
9807.42 0.369876
9807.58 0.445048
9807.74 0.533940
9807.91 0.636965
9808.07 0.756081
9808.23 0.892667
9808.40 1.04796
9808.56 1.22299
9808.72 1.41849
9808.89 1.63488
9809.00 1.80455
9809.12 1.98499
9809.24 2.17587
9809.36 2.37497
9809.47 2.58508
9809.59 2.80181
9809.83 3.25838
9810.06 3.73487
9810.30 4.21892
9810.53 4.69606
9810.77 5.15036
9810.95 5.47769
9811.13 5.77339
9811.32 6.03019
9811.50 6.24151
9811.64 6.36658
9811.77 6.46114
9811.92 6.52577
9811.99 6.54477
9812.06 6.55466
9812.10 6.55606
9812.17 6.55225
9812.22 6.54380
9812.31 6.51713
9812.46 6.44453
9812.59 6.34366
9812.73 6.21264
9812.89 6.02926
9813.04 5.81434
9813.20 5.57075
9813.35 5.30285
9813.57 4.88995
9813.79 4.45302
9814.23 3.55380
9814.45 3.11301
9814.67 2.69449
9814.89 2.30354
9815.00 2.11932
9815.10 1.94545
9815.25 1.72524
9815.40 1.52318
9815.54 1.33791
9815.69 1.16929
9815.84 1.01596
9815.98 0.879403
9816.13 0.757765
9816.27 0.650150
9816.42 0.554964
9816.57 0.472457
9816.71 0.400869
9816.86 0.339135
9817.01 0.286217
9817.15 0.241113
9817.30 0.202884
9817.44 0.170650
9817.59 0.143439
9817.74 0.120885
9817.88 0.102132
9818.03 0.0865999
9818.17 0.0737775
9818.32 0.0632214
9818.47 0.0545489
9818.61 0.0474332
9818.76 0.0415611
9818.91 0.0367782
9819.05 0.0328466
9819.20 0.0296053
9819.49 0.0246891
9819.78 0.0212390
9820.20 0.0178446
9820.62 0.0155405
9821.04 0.0138462
9821.46 0.0125210
9822.30 0.0105289
9823.14 0.00908061
9823.98 0.00797587
9824.82 0.00711125
9825.66 0.00642042
9826.50 0.00586028
9828.19 0.00501921
9829.87 0.00442965
9831.55 0.00399966
9833.23 0.00367972
9836.15 0.00330259
9839.07 0.00307744
9842.00 0.00295400
9844.92 0.00290651
9849.89 0.00297076
9854.86 0.00322365
9857.34 0.00343953
9859.83 0.00373649
9862.31 0.00414840
9864.79 0.00472661
9867.43 0.00561824
9868.74 0.00622611
9870.06 0.00698919
9871.37 0.00796527
9872.69 0.00924012
9874.00 0.0109561
9875.32 0.0133535
9876.05 0.0151284
9876.78 0.0173652
9877.51 0.0202607
9878.24 0.0241654
9878.61 0.0267144
9878.97 0.0298599
9879.34 0.0339034
9879.70 0.0392893
9880.07 0.0468168
9880.25 0.0517445
9880.43 0.0576864
9880.62 0.0649775
9880.80 0.0738685
9880.98 0.0848649
9881.16 0.0983364
9881.36 0.116858
9881.57 0.140115
9881.77 0.169214
9881.97 0.205436
9882.17 0.250242
9882.27 0.276502
9882.37 0.305254
9882.47 0.337298
9882.57 0.372230
9882.67 0.410983
9882.77 0.453025
9882.87 0.499434
9882.97 0.549523
9883.07 0.604523
9883.17 0.663560
9883.27 0.728024
9883.37 0.796823
9883.48 0.871504
9883.58 0.950729
9883.68 1.03620
9883.78 1.12630
9883.88 1.22288
9883.98 1.32402
9884.08 1.43170
9884.18 1.54370
9884.28 1.66090
9884.38 1.78311
9884.52 1.96472
9884.66 2.15494
9884.80 2.35258
9884.95 2.55474
9885.09 2.76261
9885.23 2.97140
9885.51 3.38915
9885.63 3.56075
9885.71 3.67647
9885.91 3.94798
9886.11 4.19651
9886.32 4.41516
9886.48 4.56696
9886.64 4.69158
9886.74 4.75366
9886.84 4.80352
9886.95 4.84457
9887.07 4.87145
9887.20 4.88231
9887.22 4.88194
9887.30 4.87573
9887.38 4.86190
9887.53 4.81420
9887.68 4.73889
9887.81 4.65238
9887.94 4.54828
9888.11 4.39207
9888.27 4.21187
9888.42 4.02770
9888.58 3.83049
9888.73 3.62209
9888.88 3.40556
9889.14 3.01937
9889.40 2.63389
9889.66 2.26043
9889.92 1.90933
9890.16 1.61986
9890.39 1.35809
9890.51 1.23824
9890.62 1.12590
9890.74 1.02107
9890.86 0.924487
9890.97 0.834340
9891.09 0.751296
9891.21 0.675106
9891.32 0.606050
9891.44 0.542618
9891.56 0.485089
9891.68 0.433102
9891.79 0.386667
9891.89 0.351478
9891.98 0.319694
9892.08 0.290734
9892.18 0.264401
9892.37 0.218635
9892.56 0.181415
9892.75 0.151014
9892.95 0.126568
9893.14 0.106781
9893.33 0.0909696
9893.52 0.0782153
9893.72 0.0680249
9893.91 0.0597752
9894.10 0.0531349
9894.29 0.0476982
9894.49 0.0432559
9894.87 0.0364752
9895.23 0.0318784
9895.59 0.0283603
9896.30 0.0232474
9897.02 0.0196452
9897.73 0.0169370
9898.45 0.0148232
9899.16 0.0131319
9899.88 0.0117527
9900.59 0.0106122
9901.80 0.00907827
9903.01 0.00790604
9904.22 0.00698908
9905.43 0.00625841
9907.85 0.00517893
9910.27 0.00443389
9912.69 0.00389674
9915.11 0.00349563
9917.52 0.00318907
9919.94 0.00295013
9924.78 0.00260807
9929.62 0.00238167
9938.42 0.00213440
9947.22 0.00199969
9964.81 0.00188949
9971.85 0.00187751
10000.0 0.00192106
10028.7 0.00206014
10057.4 0.00227670
10086.0 0.00258043
10114.7 0.00300063
10133.5 0.00336522
10142.9 0.00358932
10145.3 0.00366259
10146.4 0.00374828
10147.0 0.00385705
10147.6 0.00407625
10148.2 0.00451627
10148.5 0.00487030
10148.8 0.00532412
10149.1 0.00593128
10149.4 0.00667014
10149.7 0.00757159
10150.0 0.00864033
10150.6 0.0112882
10151.1 0.0142901
10151.7 0.0172707
10152.3 0.0195254
10152.5 0.0200872
10152.8 0.0205323
10152.9 0.0206000
10153.0 0.0206097
10153.0 0.0206097
10153.0 0.0206071
10153.1 0.0206005
10153.2 0.0205492
10153.5 0.0201526
10153.6 0.0199098
10153.9 0.0187613
10154.3 0.0172458
10155.0 0.0136064
10155.8 0.0100194
10156.1 0.00853770
10156.5 0.00730684
10156.8 0.00635527
10157.2 0.00562809
10157.5 0.00509496
10157.9 0.00471981
10158.2 0.00446655
10158.6 0.00430284
10159.3 0.00414474
10162.1 0.00412861
10167.6 0.00430572
10178.8 0.00474003
10184.4 0.00500300
10190.0 0.00533265
10195.5 0.00583604
10198.3 0.00630210
10199.7 0.00681875
10200.1 0.00708763
10200.4 0.00750700
10200.8 0.00819282
10201.1 0.00930022
10201.3 0.0101036
10201.4 0.0110691
10201.6 0.0122900
10201.8 0.0138286
10201.9 0.0157594
10202.1 0.0181704
10202.2 0.0211648
10202.4 0.0248622
10202.6 0.0297140
10202.7 0.0353127
10202.9 0.0420891
10203.0 0.0502336
10203.2 0.0599522
10203.4 0.0714637
10203.5 0.0849965
10203.7 0.100783
10203.9 0.120285
10204.0 0.141442
10204.3 0.192710
10204.7 0.256899
10205.0 0.334488
10205.3 0.424857
10205.6 0.526024
10206.3 0.745380
10206.6 0.855769
10206.8 0.923524
10207.0 0.981459
10207.2 1.03307
10207.4 1.07200
10207.6 1.09518
10207.8 1.10966
10207.9 1.11598
10208.0 1.11733
10208.0 1.11746
10208.1 1.11709
10208.1 1.11455
10208.4 1.09842
10208.6 1.05842
10208.9 0.998938
10209.1 0.943628
10209.3 0.881089
10209.8 0.741972
10210.2 0.596785
10210.6 0.458772
10210.9 0.364469
10211.2 0.284791
10211.6 0.215649
10211.9 0.161265
10212.0 0.137773
10212.2 0.117169
10212.3 0.0992436
10212.5 0.0846733
10212.7 0.0712952
10212.8 0.0605792
10213.0 0.0508804
10213.1 0.0432206
10213.3 0.0363829
10213.4 0.0307341
10213.6 0.0260996
10213.7 0.0225367
10213.9 0.0194379
10214.1 0.0169438
10214.2 0.0149482
10214.4 0.0134492
10214.5 0.0121735
10214.7 0.0111680
10215.0 0.00979505
10215.3 0.00894418
10215.6 0.00841833
10216.3 0.00787800
10216.9 0.00765003
10218.1 0.00747311
10220.6 0.00740324
10223.0 0.00746315
10225.4 0.00758372
10227.7 0.00774157
10230.1 0.00792362
10232.5 0.00812663
10233.7 0.00823461
10234.8 0.00834680
10236.0 0.00846400
10237.2 0.00858420
10237.8 0.00864578
10238.4 0.00870835
10239.0 0.00877191
10239.6 0.00883648
10240.3 0.00891888
10240.7 0.00896068
10241.0 0.00900287
10241.4 0.00904547
10241.8 0.00908847
10242.2 0.00913187
10242.5 0.00917569
10243.0 0.00923194
10243.5 0.00928885
10243.9 0.00934645
10244.4 0.00940348
10244.9 0.00946244
10245.3 0.00952210
10245.8 0.00958246
10246.3 0.00964223
10247.0 0.00974384
10247.8 0.00984609
10248.6 0.00995032
10249.3 0.0100566
10250.1 0.0101664
10250.8 0.0102769
10252.4 0.0105044
10253.9 0.0107426
10255.4 0.0109889
10256.9 0.0112470
10258.5 0.0115144
10260.6 0.0119164
10262.8 0.0123442
10263.9 0.0125697
10265.0 0.0128006
10266.1 0.0130394
10267.1 0.0132865
10268.2 0.0135449
10269.3 0.0138104
10270.4 0.0140885
10271.5 0.0143748
10272.6 0.0146754
10273.6 0.0149857
10274.7 0.0153093
10275.8 0.0156474
10277.5 0.0162052
10279.2 0.0168032
10280.8 0.0174559
10281.7 0.0178043
10282.5 0.0181647
10283.3 0.0185475
10284.2 0.0189501
10285.0 0.0193750
10285.9 0.0198194
10286.7 0.0202975
10287.5 0.0208078
10288.4 0.0213553
10289.2 0.0219380
10290.3 0.0227780
10291.4 0.0237120
10292.5 0.0247734
10293.5 0.0259987
10294.6 0.0274548
10295.7 0.0291931
10296.8 0.0313460
10297.9 0.0341096
10298.7 0.0368976
10299.5 0.0405796
10300.4 0.0459057
10300.8 0.0497709
10301.2 0.0550208
10301.6 0.0630349
10301.8 0.0686305
10302.1 0.0757632
10302.3 0.0849322
10302.5 0.0967819
10302.7 0.112133
10302.9 0.132014
10303.1 0.157695
10303.3 0.190718
10303.5 0.232918
10303.7 0.286436
10303.8 0.319796
10303.9 0.353718
10304.1 0.395360
10304.2 0.437491
10304.3 0.488938
10304.4 0.540708
10304.5 0.597591
10304.6 0.659927
10304.7 0.771848
10304.9 0.891440
10305.0 0.961401
10305.0 1.03585
10305.2 1.18803
10305.3 1.27612
10305.3 1.36916
10305.5 1.55724
10305.6 1.76334
10305.8 1.98753
10306.0 2.24629
10306.1 2.50658
10306.3 2.80191
10306.4 3.09375
10306.6 3.41879
10306.7 3.73385
10307.0 4.38202
10307.3 4.88110
10307.5 5.34588
10307.7 5.78486
10307.9 6.18450
10308.0 6.36544
10308.1 6.53173
10308.2 6.68191
10308.4 6.81466
10308.5 6.93821
10308.6 7.03826
10308.7 7.11887
10308.8 7.16376
10308.9 7.18097
10309.0 7.19001
10309.0 7.19010
10309.0 7.18864
10309.1 7.18426
10309.2 7.16676
10309.3 7.12865
10309.4 7.05949
10309.5 6.97427
10309.6 6.87936
10309.8 6.66908
10310.0 6.41253
10310.1 6.11572
10310.3 5.78539
10310.5 5.42876
10310.7 5.07447
10311.1 4.10107
10311.3 3.63007
10311.6 3.17641
10311.7 2.93929
10311.8 2.72957
10311.9 2.52787
10312.0 2.33477
10312.1 2.15073
10312.2 1.97606
10312.3 1.81100
10312.4 1.65565
10312.6 1.49727
10312.7 1.35038
10312.8 1.18258
10313.0 1.04132
10313.1 0.914223
10313.3 0.800531
10313.4 0.699405
10313.5 0.609949
10313.7 0.531240
10313.8 0.462347
10314.0 0.398378
10314.1 0.346914
10314.2 0.302532
10314.4 0.264425
10314.5 0.231842
10314.7 0.204090
10314.8 0.180537
10314.9 0.160612
10315.1 0.142711
10315.2 0.128740
10315.5 0.107164
10315.8 0.0919983
10316.1 0.0813233
10316.4 0.0737525
10316.6 0.0683078
10317.2 0.0613117
10317.9 0.0565961
10318.5 0.0537308
10319.8 0.0504722
10321.1 0.0489387
10322.4 0.0484067
10323.7 0.0485190
10325.0 0.0490941
10326.3 0.0500240
10327.6 0.0512340
10329.0 0.0527038
10330.3 0.0543878
10331.6 0.0562998
10332.9 0.0584056
10334.2 0.0607386
10335.5 0.0632889
10336.8 0.0660656
10338.1 0.0690576
10339.4 0.0723265
10340.7 0.0758413
10342.0 0.0796783
10343.3 0.0838042
10344.6 0.0883118
10345.9 0.0932043
10347.2 0.0985195
10348.5 0.104255
10349.2 0.107357
10349.9 0.110546
10350.5 0.113875
10351.2 0.117351
10351.8 0.121039
10352.5 0.124835
10353.1 0.128804
10353.8 0.132953
10354.4 0.137361
10355.1 0.141905
10355.7 0.146735
10356.4 0.151717
10357.0 0.157017
10357.7 0.162487
10358.3 0.168218
10359.0 0.174224
10359.7 0.180618
10360.3 0.187224
10361.0 0.194149
10361.6 0.201412
10362.3 0.209147
10362.9 0.217139
10363.6 0.225518
10364.2 0.234301
10364.9 0.243942
10365.6 0.253910
10366.2 0.264363
10366.9 0.275315
10367.6 0.286783
10368.2 0.298778
10368.9 0.311308
10369.6 0.324380
10370.3 0.337992
10370.9 0.352140
10371.6 0.366809
10372.3 0.381979
10373.6 0.413682
10374.9 0.446856
10376.3 0.482161
10377.7 0.517157
10379.1 0.550840
10380.5 0.581698
10381.9 0.608244
10382.6 0.619211
10383.2 0.628458
10383.9 0.635820
10384.6 0.641161
10385.3 0.644380
10386.0 0.645416
10387.0 0.642963
10388.0 0.635896
10388.8 0.626958
10389.7 0.615395
10390.5 0.601492
10391.3 0.585781
10392.1 0.568217
10392.9 0.549337
10394.6 0.509252
10396.2 0.467497
10397.8 0.426471
10399.5 0.387024
10401.1 0.350498
10402.3 0.325575
10403.5 0.302391
10404.7 0.280934
10405.9 0.261152
10407.1 0.242964
10408.3 0.226270
10409.5 0.210965
10410.7 0.197053
10411.9 0.184399
10413.1 0.172785
10414.2 0.162119
10415.4 0.152316
10416.6 0.143299
10417.8 0.134996
10419.0 0.127341
10420.1 0.120275
10422.0 0.110363
10423.8 0.101619
10425.6 0.0937918
10427.4 0.0868296
10429.3 0.0805484
10431.1 0.0749313
10432.9 0.0698660
10434.7 0.0652856
10437.1 0.0599751
10439.4 0.0552779
10441.8 0.0511060
10444.2 0.0474011
10446.5 0.0440708
10448.9 0.0410803
10451.2 0.0383863
10453.6 0.0359618
10455.9 0.0337550
10458.3 0.0317502
10460.7 0.0299244
10463.0 0.0282580
10465.4 0.0267343
10467.7 0.0253388
10470.1 0.0240590
10472.5 0.0228844
10474.8 0.0218061
10477.2 0.0208169
10479.5 0.0199111
10481.9 0.0190848
10486.6 0.0176671
10491.3 0.0165950
10496.5 0.0160255
10498.9 0.0161847
10501.2 0.0169822
10502.4 0.0178991
10503.0 0.0186424
10503.6 0.0197863
10504.2 0.0217863
10504.5 0.0234462
10504.8 0.0257639
10505.1 0.0292873
10505.3 0.0343263
10505.6 0.0417351
10505.8 0.0468285
10505.9 0.0525608
10506.1 0.0638988
10506.4 0.0780075
10506.6 0.0971118
10506.8 0.120438
10507.0 0.151373
10507.2 0.188313
10507.4 0.236158
10507.6 0.291905
10507.9 0.362277
10508.1 0.442123
10508.3 0.540182
10508.5 0.648330
10508.7 0.777298
10508.9 0.915277
10509.1 1.06713
10509.4 1.23159
10509.6 1.40671
10509.8 1.58099
10510.2 1.93958
10510.4 2.12554
10510.6 2.29572
10510.8 2.45488
10511.0 2.59890
10511.1 2.69460
10511.3 2.77803
10511.4 2.84784
10511.6 2.89967
10511.8 2.95333
10511.9 2.96688
10512.0 2.97134
10512.0 2.97138
10512.0 2.97076
10512.1 2.96894
10512.2 2.95915
10512.4 2.91744
10512.6 2.83888
10512.8 2.73452
10513.0 2.63134
10513.2 2.51371
10513.3 2.38398
10513.5 2.24466
10513.8 1.94748
10514.2 1.65102
10514.5 1.39703
10514.7 1.16642
10515.0 0.949060
10515.3 0.763741
10515.6 0.599009
10515.9 0.466124
10516.2 0.357498
10516.4 0.270782
10516.6 0.232353
10516.7 0.201004
10516.9 0.173624
10517.0 0.149833
10517.1 0.129265
10517.3 0.111570
10517.4 0.0964160
10517.6 0.0834970
10517.7 0.0718134
10517.9 0.0626505
10518.0 0.0549321
10518.1 0.0484514
10518.3 0.0430252
10518.4 0.0384927
10518.7 0.0315658
10518.9 0.0278046
10519.1 0.0249438
10519.3 0.0227584
10519.5 0.0211468
10519.9 0.0187758
10520.4 0.0172782
10521.2 0.0154215
10522.0 0.0142695
10523.7 0.0127644
10525.3 0.0117849
10528.6 0.0105305
10531.9 0.00972726
10536.5 0.00895515
10541.0 0.00839553
10545.6 0.00798361
10550.1 0.00774390
10551.7 0.00772825
10554.4 0.00787713
10555.7 0.00813352
10556.4 0.00840257
10557.0 0.00895011
10557.3 0.00947069
10557.7 0.0103070
10558.0 0.0116657
10558.2 0.0126695
10558.3 0.0138706
10558.5 0.0154888
10558.7 0.0174117
10558.8 0.0199803
10559.0 0.0230027
10559.2 0.0269963
10559.3 0.0316405
10559.5 0.0377007
10559.7 0.0446564
10559.8 0.0536092
10560.0 0.0637407
10560.2 0.0765920
10560.3 0.0909197
10560.5 0.108817
10560.6 0.128462
10560.8 0.152611
10561.0 0.178691
10561.3 0.243701
10561.6 0.324982
10562.0 0.422988
10562.3 0.533066
10562.5 0.631722
10562.8 0.732245
10563.3 0.943109
10563.6 1.04250
10563.8 1.13429
10564.1 1.21475
10564.3 1.27807
10564.5 1.32019
10564.7 1.34741
10564.9 1.36045
10565.0 1.36266
10565.0 1.36293
10565.1 1.36207
10565.2 1.35595
10565.4 1.34049
10565.5 1.31657
10565.7 1.28013
10565.9 1.23446
10566.1 1.18064
10566.2 1.11990
10566.3 1.09470
10566.5 1.03437
10566.6 0.971056
10567.0 0.839423
10567.3 0.707280
10567.6 0.584835
10567.9 0.468976
10568.2 0.369975
10568.5 0.283018
10568.8 0.213724
10569.1 0.173050
10569.3 0.138877
10569.5 0.110587
10569.7 0.0884459
10569.9 0.0696759
10570.2 0.0547644
10570.4 0.0430724
10570.6 0.0343812
10570.8 0.0273686
10571.0 0.0220611
10571.2 0.0180854
10571.5 0.0152504
10571.7 0.0130466
10571.9 0.0114325
10572.1 0.0102543
10572.3 0.00942803
10572.8 0.00831826
10573.2 0.00770855
10574.1 0.00707964
10575.8 0.00650406
10579.3 0.00593149
10582.8 0.00559673
10592.9 0.00500539
10603.0 0.00461223
10613.1 0.00431196
10623.2 0.00410235
10628.3 0.00406168
10631.8 0.00410058
10635.4 0.00429868
10636.3 0.00441453
10637.2 0.00461957
10637.6 0.00481124
10638.1 0.00513677
10638.5 0.00576028
10638.7 0.00625386
10638.9 0.00694016
10639.2 0.00794409
10639.4 0.00928046
10639.6 0.0111149
10639.8 0.0136122
10640.1 0.0171564
10640.3 0.0217046
10640.5 0.0276982
10640.7 0.0355009
10641.0 0.0460466
10641.2 0.0589045
10641.4 0.0749867
10641.6 0.0948236
10641.8 0.120151
10642.1 0.149285
10642.3 0.183651
10642.5 0.223569
10642.8 0.291836
10643.1 0.369213
10643.5 0.459348
10643.8 0.554142
10644.4 0.765863
10644.8 0.864338
10645.1 0.945159
10645.4 0.997749
10645.7 1.03156
10645.9 1.04476
10646.0 1.04741
10646.0 1.04774
10646.1 1.04725
10646.2 1.04431
10646.4 1.02550
10646.4 1.02331
10646.5 1.01355
10646.6 1.00374
10646.7 0.978927
10646.9 0.940617
10647.3 0.855956
10647.6 0.756440
10648.1 0.601399
10648.6 0.450317
10648.8 0.396171
10649.2 0.291678
10649.6 0.208261
10649.8 0.173609
10650.0 0.143485
10650.2 0.117625
10650.4 0.0956993
10650.6 0.0765003
10650.8 0.0614423
10651.0 0.0491262
10651.2 0.0391652
10651.4 0.0311968
10651.6 0.0248895
10651.8 0.0199479
10652.0 0.0161141
10652.2 0.0130395
10652.4 0.0108241
10652.6 0.00914931
10652.8 0.00789147
10653.0 0.00695168
10653.2 0.00625194
10653.4 0.00573158
10653.6 0.00534406
10654.0 0.00482587
10654.4 0.00453270
10655.2 0.00422234
10656.8 0.00393112
10658.4 0.00376251
10661.6 0.00356206
10669.4 0.00334850
10677.2 0.00328881
10681.1 0.00333130
10685.0 0.00351519
10687.0 0.00379048
10687.5 0.00394953
10688.0 0.00423298
10688.2 0.00446861
10688.5 0.00479091
10688.7 0.00525095
10688.9 0.00590946
10689.2 0.00689725
10689.4 0.00825379
10689.7 0.0102593
10689.9 0.0129603
10690.1 0.0148296
10690.2 0.0168606
10690.4 0.0219770
10690.7 0.0288274
10690.9 0.0378640
10691.1 0.0501572
10691.4 0.0653094
10691.6 0.0852348
10691.9 0.108955
10692.1 0.139047
10692.4 0.173577
10692.6 0.213939
10692.8 0.260224
10693.2 0.347493
10693.7 0.455296
10694.1 0.568333
10694.5 0.682897
10694.9 0.782747
10695.2 0.848757
10695.6 0.893787
10695.8 0.911218
10695.9 0.914541
10696.0 0.914953
10696.0 0.914941
10696.0 0.914764
10696.1 0.914379
10696.2 0.911185
10696.5 0.890687
10696.6 0.879233
10696.9 0.823696
10697.3 0.748124
10697.5 0.680082
10697.9 0.576497
10698.3 0.471375
10698.7 0.374394
10699.0 0.303085
10699.3 0.242081
10699.5 0.189595
10699.8 0.145705
10700.1 0.108896
10700.4 0.0808240
10700.6 0.0688796
10700.7 0.0591477
10700.9 0.0500989
10701.0 0.0428148
10701.2 0.0361216
10701.3 0.0304468
10701.5 0.0256644
10701.6 0.0219029
10701.7 0.0185238
10701.9 0.0158940
10702.0 0.0135554
10702.2 0.0117532
10702.3 0.0101655
10702.5 0.00887472
10702.6 0.00782974
10702.8 0.00703754
10702.9 0.00634979
10703.1 0.00583114
10703.3 0.00504526
10703.6 0.00451995
10703.9 0.00418958
10704.5 0.00381669
10705.1 0.00362275
10705.7 0.00350515
10708.0 0.00324782
10710.7 0.00310033
10713.3 0.00301568
10718.5 0.00292511
10729.0 0.00286290
10738.0 0.00287424
10747.0 0.00294889
10756.0 0.00313782
10760.5 0.00331315
10765.0 0.00358105
10769.7 0.00407825
10772.0 0.00447257
10774.3 0.00503616
10776.7 0.00590222
10777.8 0.00652329
10779.0 0.00733861
10780.2 0.00844121
10781.4 0.0100012
10781.9 0.0110635
10782.5 0.0124014
10783.1 0.0142672
10783.4 0.0155007
10783.7 0.0170726
10784.0 0.0190670
10784.3 0.0217612
10784.5 0.0255006
10784.8 0.0307956
10785.0 0.0342466
10785.1 0.0383860
10785.2 0.0433552
10785.4 0.0493206
10785.5 0.0564765
10785.7 0.0650491
10785.8 0.0752988
10785.9 0.0875239
10786.2 0.112808
10786.4 0.144469
10786.6 0.187393
10786.8 0.240031
10787.1 0.309777
10787.3 0.393248
10787.5 0.495869
10787.7 0.620388
10787.8 0.698489
10788.0 0.776837
10788.1 0.861935
10788.2 0.954032
10788.3 1.05334
10788.4 1.16002
10788.5 1.27419
10788.6 1.39590
10788.7 1.53725
10788.8 1.67460
10789.0 1.81921
10789.1 1.97082
10789.3 2.29358
10789.5 2.63902
10789.7 2.95150
10789.9 3.27254
10790.3 3.90246
10790.4 4.21675
10790.6 4.51631
10790.8 4.79452
10791.0 5.03250
10791.1 5.18589
10791.3 5.32174
10791.4 5.43840
10791.5 5.52784
10791.6 5.59878
10791.7 5.64692
10791.9 5.67846
10791.9 5.68974
10792.0 5.69394
10792.0 5.69421
10792.1 5.69072
10792.1 5.68401
10792.2 5.66011
10792.4 5.60348
10792.5 5.54689
10792.6 5.48484
10792.7 5.32105
10792.9 5.20722
10793.0 5.08064
10793.1 4.94239
10793.2 4.79360
10793.4 4.46928
10793.6 4.11779
10794.2 3.08508
10794.5 2.59008
10794.7 2.35424
10794.8 2.12858
10795.0 1.90064
10795.1 1.70002
10795.3 1.51282
10795.4 1.33946
10795.6 1.18011
10795.7 1.03469
10795.9 0.902917
10796.0 0.784336
10796.3 0.639308
10796.5 0.516932
10796.7 0.414945
10796.9 0.334593
10797.1 0.265550
10797.3 0.212320
10797.5 0.167517
10797.7 0.133649
10797.9 0.105659
10798.1 0.0839427
10798.3 0.0672158
10798.5 0.0549434
10798.7 0.0450523
10798.9 0.0378424
10799.1 0.0320457
10799.3 0.0278107
10799.6 0.0243796
10799.8 0.0217269
10800.0 0.0196514
10800.2 0.0180735
10800.6 0.0156706
10801.0 0.0139742
10801.4 0.0126935
10801.8 0.0116734
10802.6 0.0101140
10803.5 0.00888603
10804.4 0.00795395
10805.3 0.00722516
10806.2 0.00664251
10807.9 0.00577649
10809.7 0.00517729
10811.4 0.00474483
10813.2 0.00442972
10816.7 0.00400645
10820.2 0.00375417
10823.7 0.00361106
10830.7 0.00346640
10838.6 0.00350509
10846.5 0.00369741
10854.4 0.00407015
10858.4 0.00435052
10862.3 0.00472565
10867.2 0.00536933
10869.6 0.00580001
10872.0 0.00633035
10874.4 0.00699855
10876.8 0.00784813
10879.3 0.00895887
10880.5 0.00964351
10881.7 0.0104327
10882.9 0.0113668
10884.1 0.0124756
10885.3 0.0138060
10886.5 0.0154060
10887.7 0.0173892
10888.9 0.0198460
10890.1 0.0230007
10891.3 0.0270781
10892.2 0.0308158
10893.0 0.0354420
10893.9 0.0413531
10894.7 0.0491217
10895.6 0.0597545
10896.0 0.0667919
10896.4 0.0752522
10896.7 0.0805085
10896.9 0.0861943
10897.1 0.0926673
10897.3 0.100092
10897.5 0.109115
10897.7 0.119178
10897.9 0.130976
10898.1 0.144889
10898.3 0.160528
10898.5 0.177981
10898.7 0.198449
10898.9 0.222481
10899.1 0.247518
10899.2 0.274599
10899.3 0.291507
10899.4 0.307636
10899.6 0.343270
10899.7 0.370605
10899.8 0.400461
10899.9 0.433026
10900.0 0.468492
10900.1 0.499804
10900.2 0.529463
10900.3 0.560920
10900.3 0.594247
10900.4 0.634068
10900.5 0.671612
10900.6 0.711248
10900.7 0.753042
10900.8 0.802716
10900.8 0.849295
10900.9 0.898208
10901.0 0.949503
10901.1 1.00322
10901.2 1.05938
10901.2 1.11802
10901.3 1.17915
10901.4 1.24277
10901.5 1.30888
10901.6 1.37746
10901.6 1.43947
10901.7 1.51260
10901.8 1.57852
10901.9 1.72563
10902.1 1.88025
10902.2 2.04165
10902.4 2.20890
10902.5 2.38089
10902.7 2.57994
10902.9 2.76942
10903.2 3.15805
10903.4 3.44074
10903.7 3.70336
10903.9 3.86583
10904.0 4.00398
10904.2 4.11855
10904.3 4.21702
10904.5 4.29317
10904.6 4.35312
10904.8 4.40724
10905.0 4.42887
10905.0 4.42928
10905.0 4.42853
10905.1 4.42025
10905.2 4.40502
10905.4 4.34907
10905.6 4.27775
10905.7 4.19189
10905.9 4.07394
10906.1 3.94475
10906.2 3.82822
10906.3 3.70257
10906.6 3.43991
10906.8 3.15720
10907.1 2.86350
10907.5 2.38017
10907.7 2.14070
10907.9 1.92207
10908.1 1.66536
10908.3 1.54019
10908.4 1.43010
10908.5 1.31697
10908.6 1.21831
10908.8 1.11775
10908.9 1.03076
10909.0 0.962501
10909.1 0.898032
10909.2 0.837280
10909.3 0.785708
10909.4 0.731759
10909.5 0.681227
10909.6 0.633990
10909.7 0.594182
10909.8 0.552830
10909.9 0.514372
10910.0 0.478661
10910.1 0.448750
10910.2 0.417856
10910.3 0.392043
10910.4 0.365442
10910.4 0.343261
10910.6 0.313960
10910.7 0.287634
10910.8 0.264009
10911.0 0.244375
10911.1 0.225234
10911.2 0.209339
10911.3 0.193847
10911.5 0.180979
10911.6 0.168426
10911.7 0.157986
10911.8 0.147781
10912.0 0.139272
10912.1 0.130931
10912.2 0.123952
10912.5 0.111312
10912.7 0.100404
10913.0 0.0916107
10913.2 0.0841330
10913.5 0.0777062
10913.7 0.0721262
10914.0 0.0672352
10914.2 0.0629110
10914.5 0.0590583
10915.0 0.0524837
10915.5 0.0470772
10916.0 0.0425537
10916.5 0.0387176
10916.8 0.0362374
10917.2 0.0340698
10917.9 0.0302877
10918.7 0.0271623
10919.4 0.0245458
10920.1 0.0223307
10920.8 0.0204371
10921.6 0.0188043
10922.3 0.0173860
10923.3 0.0157111
10924.3 0.0143172
10925.3 0.0131333
10926.3 0.0121189
10927.3 0.0112350
10928.3 0.0104750
10930.3 0.00922557
10932.3 0.00824359
10934.3 0.00746017
10936.4 0.00682573
10938.4 0.00630786
10940.4 0.00587596
10942.4 0.00551402
10944.4 0.00520797
10946.4 0.00494832
10949.3 0.00463321
10952.2 0.00437777
10955.1 0.00416913
10958.1 0.00399655
10963.9 0.00373077
10969.7 0.00354278
10974.8 0.00342247
10980.0 0.00333289
10985.1 0.00326761
10990.2 0.00321907
10995.3 0.00318499
11000.4 0.00316286
11005.5 0.00315066
11010.6 0.00314688
11017.5 0.00315317
11024.5 0.00317066
11031.4 0.00319779
11038.3 0.00323348
11045.3 0.00327711
11048.7 0.00330178
11052.2 0.00332808
11055.7 0.00335624
11059.1 0.00338585
11062.6 0.00341745
11066.1 0.00345071
11070.1 0.00349150
11074.1 0.00353450
11078.1 0.00357982
11082.1 0.00362750
11086.1 0.00367771
11090.1 0.00373026
11094.1 0.00378533
11098.2 0.00384300
11100.7 0.00388121
11103.3 0.00392039
11105.8 0.00396087
11108.4 0.00400236
11110.9 0.00404522
11113.5 0.00408914
11116.0 0.00413434
11118.6 0.00418084
11122.6 0.00425691
11124.6 0.00429625
11126.6 0.00433631
11128.6 0.00437749
11130.6 0.00441963
11132.6 0.00446277
11134.6 0.00450670
11136.7 0.00455189
11138.7 0.00459817
11140.7 0.00464558
11142.7 0.00469390
11144.7 0.00474365
11146.7 0.00479440
11148.7 0.00484668
11150.7 0.00490003
11152.7 0.00495503
11154.7 0.00501148
11156.7 0.00506944
11158.7 0.00512866
11160.7 0.00518981
11162.7 0.00525268
11164.8 0.00531733
11166.8 0.00538353
11168.8 0.00545202
11170.8 0.00552257
11172.8 0.00559530
11174.8 0.00566994
11176.8 0.00574737
11178.8 0.00582695
11180.8 0.00590963
11182.8 0.00599474
11184.8 0.00608333
11186.8 0.00617517
11188.8 0.00627048
11190.8 0.00636900
11192.8 0.00647199
11194.8 0.00657871
11196.9 0.00669058
11198.9 0.00680683
11200.9 0.00692905
11202.9 0.00705715
11204.9 0.00719165
11206.9 0.00733243
11208.9 0.00748160
11210.9 0.00763843
11212.9 0.00780538
11214.9 0.00798183
11218.0 0.00827952
11221.1 0.00860933
11224.2 0.00897905
11227.3 0.00939763
11230.4 0.00987615
11232.0 0.0101419
11233.5 0.0104288
11235.1 0.0107404
11236.6 0.0110804
11238.2 0.0114525
11239.7 0.0118615
11241.5 0.0123718
11243.2 0.0129428
11244.9 0.0135940
11246.7 0.0143340
11248.4 0.0151921
11250.1 0.0161849
11251.9 0.0173525
11253.6 0.0187452
11254.6 0.0196883
11255.6 0.0207368
11256.6 0.0219197
11257.6 0.0232623
11258.6 0.0248127
11259.6 0.0265804
11260.6 0.0286308
11261.6 0.0310305
11262.2 0.0326736
11262.8 0.0344654
11263.4 0.0364953
11264.0 0.0387291
11264.6 0.0412844
11265.2 0.0441263
11265.8 0.0473564
11266.4 0.0510518
11266.9 0.0546959
11267.4 0.0587538
11267.9 0.0633879
11268.4 0.0687198
11268.9 0.0749072
11269.4 0.0821597
11269.9 0.0907621
11270.1 0.0956879
11270.4 0.101112
11270.6 0.107365
11270.9 0.114064
11271.1 0.121552
11271.4 0.129972
11271.6 0.139497
11271.9 0.150345
11272.1 0.162780
11272.4 0.177131
11272.6 0.194518
11272.9 0.214113
11273.1 0.237127
11273.3 0.250676
11273.4 0.264269
11273.5 0.280287
11273.6 0.296375
11273.8 0.315348
11273.9 0.334413
11274.0 0.356898
11274.1 0.379486
11274.3 0.406108
11274.4 0.432823
11274.6 0.479704
11274.8 0.529788
11274.9 0.585929
11275.1 0.648658
11275.3 0.722580
11275.5 0.800409
11275.7 0.886245
11275.8 0.980421
11276.0 1.05376
11276.1 1.12546
11276.2 1.20749
11276.3 1.28719
11276.6 1.46517
11276.8 1.65828
11277.1 1.84761
11277.3 2.04593
11277.8 2.45774
11278.1 2.74340
11278.2 2.88177
11278.4 3.00693
11278.6 3.20213
11278.8 3.29534
11278.9 3.37541
11279.1 3.47786
11279.2 3.56598
11279.4 3.63838
11279.6 3.69110
11279.7 3.73158
11279.9 3.75139
11280.0 3.75345
11280.1 3.74704
11280.3 3.72793
11280.4 3.69637
11280.6 3.65269
11280.7 3.59302
11280.9 3.52077
11281.0 3.43684
11281.2 3.34888
11281.4 3.14886
11281.7 2.92346
11282.0 2.68112
11282.3 2.43017
11282.6 2.17838
11282.7 2.05435
11282.8 1.93257
11283.0 1.83050
11283.1 1.73913
11283.2 1.64216
11283.3 1.55597
11283.4 1.46512
11283.5 1.38491
11283.6 1.30089
11283.8 1.22716
11283.9 1.13796
11284.0 1.05399
11284.2 0.975255
11284.2 0.937836
11284.3 0.901700
11284.4 0.866832
11284.5 0.833217
11284.5 0.800834
11284.6 0.769662
11284.7 0.739678
11284.7 0.710857
11284.8 0.683174
11284.9 0.656601
11284.9 0.631108
11285.0 0.610096
11285.1 0.570315
11285.2 0.533396
11285.4 0.499180
11285.5 0.467511
11285.6 0.438231
11285.7 0.411186
11285.8 0.386224
11286.0 0.363200
11286.1 0.341972
11286.2 0.322405
11286.3 0.304372
11286.4 0.287752
11286.6 0.272430
11286.7 0.258300
11286.8 0.245263
11287.0 0.227554
11287.2 0.211813
11287.3 0.197789
11287.5 0.185922
11287.7 0.174630
11287.9 0.164483
11288.1 0.155335
11288.2 0.147498
11288.4 0.139945
11288.6 0.133067
11288.8 0.126782
11288.9 0.121020
11289.1 0.115721
11289.3 0.110834
11289.7 0.102346
11290.0 0.0947860
11290.4 0.0883672
11290.7 0.0825566
11291.1 0.0775520
11291.4 0.0729651
11291.8 0.0689711
11292.5 0.0620279
11293.2 0.0563198
11293.9 0.0515631
11295.1 0.0449989
11296.4 0.0400083
11297.6 0.0360926
11298.8 0.0329704
11301.2 0.0283959
11303.7 0.0253117
11306.1 0.0231430
11308.6 0.0215629
11313.4 0.0196338
11317.5 0.0188195
11321.6 0.0185353
11323.8 0.0186977
11324.9 0.0192118
11325.5 0.0199953
11326.1 0.0217742
11326.3 0.0233627
11326.6 0.0256964
11326.9 0.0290745
11327.2 0.0338838
11327.5 0.0406088
11327.7 0.0498353
11328.0 0.0622448
11328.3 0.0785950
11328.6 0.0996838
11328.9 0.126294
11329.1 0.159120
11329.4 0.198679
11329.7 0.245208
11330.0 0.298570
11330.3 0.358163
11330.5 0.420479
11331.4 0.633154
11331.8 0.727663
11332.1 0.768528
11332.3 0.801199
11332.5 0.828709
11332.7 0.846024
11332.9 0.852982
11333.0 0.854855
11333.0 0.854425
11333.1 0.854062
11333.2 0.851854
11333.3 0.848165
11333.6 0.820169
11333.9 0.778525
11334.2 0.725657
11334.5 0.663336
11334.8 0.594790
11335.2 0.486167
11335.6 0.380948
11336.1 0.286856
11336.5 0.208414
11336.7 0.175617
11337.0 0.147069
11337.2 0.122581
11337.4 0.101876
11337.6 0.0846113
11337.8 0.0704114
11338.1 0.0588871
11338.3 0.0500306
11338.5 0.0426492
11338.7 0.0368802
11338.9 0.0324259
11339.2 0.0290267
11339.4 0.0264620
11339.6 0.0245475
11340.0 0.0220977
11340.5 0.0208053
11340.9 0.0201424
11341.8 0.0196443
11345.1 0.0195673
11348.3 0.0198709
11351.6 0.0203017
11354.9 0.0208154
11358.2 0.0213953
11361.5 0.0220343
11364.7 0.0227299
11368.0 0.0234789
11371.5 0.0243275
11374.9 0.0252373
11378.3 0.0262166
11381.8 0.0272635
11385.2 0.0283892
11388.6 0.0295944
11392.1 0.0308929
11395.5 0.0323040
11398.9 0.0338748
11402.4 0.0357186
11404.1 0.0369595
11404.9 0.0380424
11405.8 0.0405817
11406.2 0.0433027
11406.7 0.0480205
11406.9 0.0516175
11407.1 0.0560757
11407.3 0.0620937
11407.5 0.0694240
11407.7 0.0791288
11407.9 0.0907063
11408.2 0.105698
11408.4 0.123175
11408.6 0.145268
11408.8 0.170393
11409.0 0.199836
11409.2 0.233901
11409.6 0.307900
11410.0 0.395234
11410.3 0.496102
11410.7 0.606996
11411.5 0.835047
11411.8 0.936674
11412.2 1.01891
11412.4 1.05836
11412.7 1.08497
11412.9 1.09622
11413.0 1.09853
11413.0 1.09875
11413.1 1.09816
11413.2 1.09382
11413.2 1.09163
11413.4 1.07898
11413.6 1.06025
11413.9 1.00804
11414.2 0.940312
11414.5 0.859689
11414.8 0.770618
11415.3 0.597094
11415.6 0.513355
11415.9 0.435040
11416.2 0.363895
11416.5 0.300998
11416.7 0.246805
11417.0 0.202731
11417.3 0.165053
11417.6 0.134801
11417.8 0.111050
11418.1 0.0933743
11418.4 0.0795139
11418.7 0.0693046
11419.0 0.0619407
11419.2 0.0568948
11419.7 0.0516353
11420.1 0.0488875
11421.0 0.0469840
11422.8 0.0470802
11426.4 0.0490222
11429.9 0.0513801
11433.5 0.0539634
11437.1 0.0567425
11440.6 0.0596697
11444.2 0.0627547
11447.8 0.0659700
11450.7 0.0687107
11453.6 0.0715157
11456.5 0.0743821
11459.4 0.0772949
11465.3 0.0831918
11471.1 0.0889986
11477.0 0.0944931
11482.8 0.0993715
11488.7 0.103342
11491.6 0.104897
11494.5 0.106123
11498.8 0.107269
11503.0 0.107614
11506.2 0.107337
11509.4 0.106606
11512.6 0.105440
11515.8 0.103873
11518.9 0.101930
11522.1 0.0996608
11525.3 0.0971131
11528.5 0.0943449
11531.7 0.0913883
11534.9 0.0883004
11541.3 0.0819158
11554.0 0.0692534
11560.4 0.0633577
11566.8 0.0579725
11570.6 0.0549987
11574.5 0.0523427
11578.4 0.0502437
11580.3 0.0496381
11582.2 0.0501430
11583.0 0.0519327
11583.4 0.0540412
11583.8 0.0578089
11584.2 0.0644036
11584.4 0.0694446
11584.6 0.0756575
11584.8 0.0840816
11585.0 0.0943032
11585.2 0.107936
11585.4 0.124198
11585.6 0.145505
11585.7 0.170461
11585.9 0.202551
11586.1 0.239420
11586.3 0.285903
11586.5 0.338248
11586.7 0.402898
11586.9 0.474192
11587.1 0.560372
11587.3 0.653348
11587.5 0.763235
11587.7 0.879080
11587.9 1.01277
11588.1 1.15029
11588.3 1.29703
11588.5 1.45159
11588.8 1.72446
11589.1 1.99471
11589.4 2.25858
11589.7 2.50260
11589.9 2.63643
11590.1 2.74883
11590.3 2.84966
11590.5 2.92613
11590.6 2.97978
11590.8 3.01279
11590.9 3.02671
11591.0 3.02918
11591.0 3.02947
11591.0 3.02942
11591.0 3.02888
11591.1 3.02816
11591.1 3.02252
11591.3 2.99141
11591.4 2.96226
11591.5 2.95293
11591.5 2.93959
11591.6 2.90182
11591.8 2.80303
11592.0 2.69919
11592.2 2.58698
11592.4 2.45553
11592.5 2.31365
11592.9 2.01808
11593.2 1.71278
11593.6 1.41517
11593.8 1.26982
11593.9 1.13919
11594.1 1.00900
11594.3 0.894452
11594.5 0.782614
11594.6 0.686156
11594.8 0.593768
11595.0 0.515562
11595.2 0.423201
11595.4 0.345323
11595.7 0.280614
11595.9 0.227607
11596.1 0.184781
11596.4 0.150641
11596.6 0.123773
11596.8 0.103685
11597.0 0.0874448
11597.3 0.0750924
11597.5 0.0657872
11597.7 0.0588353
11598.0 0.0536747
11598.2 0.0498594
11598.6 0.0450338
11599.1 0.0422687
11599.6 0.0406383
11600.5 0.0388290
11602.3 0.0368170
11606.5 0.0338660
11610.7 0.0316743
11615.0 0.0298223
11619.2 0.0281700
11623.4 0.0266626
11627.6 0.0252825
11631.8 0.0240055
11636.0 0.0228250
11642.2 0.0212391
11648.4 0.0198125
11654.6 0.0185233
11660.8 0.0173560
11666.9 0.0162955
11673.1 0.0153342
11679.3 0.0144614
11685.5 0.0136700
11693.4 0.0127736
11701.2 0.0120038
11709.1 0.0113868
11717.0 0.0110702
11720.2 0.0111611
11723.4 0.0116478
11725.0 0.0122876
11725.9 0.0129074
11726.7 0.0141523
11727.1 0.0153887
11727.5 0.0174084
11727.7 0.0189797
11727.9 0.0209431
11728.1 0.0235000
11728.3 0.0268200
11728.5 0.0313567
11728.7 0.0369444
11728.9 0.0440798
11729.1 0.0531253
11729.3 0.0645017
11729.5 0.0786886
11729.7 0.0962228
11729.9 0.117693
11730.1 0.140903
11730.2 0.168290
11730.4 0.200342
11730.6 0.235326
11730.8 0.277790
11730.9 0.323377
11731.3 0.435181
11731.6 0.572188
11732.0 0.733903
11732.3 0.917305
11732.7 1.11648
11733.4 1.50770
11733.7 1.68448
11733.9 1.76640
11734.0 1.83609
11734.2 1.89387
11734.3 1.94347
11734.5 1.98416
11734.6 2.01532
11734.8 2.04282
11734.9 2.04999
11735.0 2.04878
11735.1 2.04759
11735.2 2.03938
11735.4 2.02021
11735.5 1.99321
11735.7 1.92434
11736.0 1.83156
11736.2 1.73788
11736.4 1.64822
11736.6 1.55175
11736.9 1.34559
11737.3 1.09842
11737.7 0.894849
11738.1 0.708835
11738.4 0.546384
11738.8 0.413734
11739.1 0.303426
11739.3 0.257680
11739.5 0.219808
11739.7 0.184945
11739.8 0.155009
11740.0 0.129519
11740.2 0.109091
11740.4 0.0908698
11740.6 0.0757125
11740.7 0.0631969
11740.9 0.0529359
11741.1 0.0445800
11741.3 0.0378185
11741.5 0.0323791
11741.6 0.0282431
11741.8 0.0247311
11742.0 0.0219431
11742.2 0.0197359
11742.3 0.0180777
11742.7 0.0155745
11743.0 0.0140299
11743.5 0.0127544
11744.0 0.0119909
11744.9 0.0110959
11746.7 0.0101403
11750.4 0.00919089
11757.8 0.00834340
11768.1 0.00777660
11778.3 0.00753462
11786.3 0.00770176
11790.3 0.00808474
11792.3 0.00845002
11794.3 0.00903785
11795.5 0.00956242
11796.6 0.0102980
11797.8 0.0114167
11798.4 0.0122484
11799.0 0.0134452
11799.3 0.0143343
11799.6 0.0154889
11799.9 0.0171497
11800.2 0.0194404
11800.5 0.0228869
11800.8 0.0277745
11800.9 0.0311307
11801.0 0.0349141
11801.2 0.0398050
11801.3 0.0452998
11801.5 0.0523719
11801.6 0.0608933
11801.8 0.0711250
11801.9 0.0824781
11802.1 0.0968875
11802.2 0.112749
11802.4 0.132709
11802.5 0.154487
11802.7 0.181640
11802.8 0.213241
11803.0 0.249820
11803.1 0.288942
11803.4 0.387298
11803.7 0.512366
11804.0 0.667875
11804.2 0.849694
11804.4 0.960503
11804.5 1.07247
11804.8 1.32081
11805.1 1.56850
11805.3 1.83763
11805.6 2.12367
11805.8 2.42053
11806.3 3.01560
11806.6 3.29572
11806.8 3.54170
11807.0 3.70629
11807.2 3.85012
11807.3 3.97020
11807.5 4.05948
11807.7 4.11415
11807.8 4.15098
11807.9 4.16709
11808.0 4.17162
11808.0 4.17180
11808.1 4.16914
11808.2 4.15960
11808.4 4.11057
11808.6 4.01485
11808.8 3.87843
11809.0 3.76427
11809.1 3.64392
11809.2 3.50194
11809.4 3.35893
11809.7 3.03792
11810.0 2.70801
11810.4 2.22899
11810.6 1.99548
11810.7 1.78174
11810.9 1.56802
11811.1 1.36806
11811.3 1.18344
11811.5 1.02319
11811.7 0.870871
11811.9 0.735293
11812.1 0.616013
11812.3 0.517085
11812.5 0.427111
11812.7 0.354017
11812.9 0.288862
11813.1 0.236959
11813.3 0.193632
11813.5 0.159492
11813.7 0.129750
11813.8 0.106678
11814.0 0.0868748
11814.2 0.0717291
11814.4 0.0595044
11814.6 0.0496916
11814.8 0.0414679
11814.9 0.0353119
11815.1 0.0301921
11815.3 0.0263807
11815.5 0.0232198
11815.7 0.0208663
11816.0 0.0175109
11816.4 0.0153031
11816.8 0.0138422
11817.2 0.0128226
11817.5 0.0120858
11818.3 0.0110078
11819.0 0.0102552
11820.5 0.00920930
11821.9 0.00851714
11824.9 0.00768406
11829.1 0.00707992
11833.2 0.00678107
11841.6 0.00660641
11847.9 0.00669658
11854.2 0.00695107
11860.5 0.00740128
11866.8 0.00812897
11870.6 0.00875713
11874.3 0.00958786
11878.1 0.0107018
11881.9 0.0122274
11884.2 0.0134532
11886.5 0.0149846
11888.8 0.0169271
11891.1 0.0194250
11892.8 0.0217357
11894.5 0.0246033
11896.2 0.0282226
11897.8 0.0328523
11899.0 0.0368957
11900.1 0.0418061
11901.3 0.0479081
11902.4 0.0556286
11903.0 0.0603282
11903.6 0.0657104
11904.2 0.0719182
11904.7 0.0790012
11905.3 0.0874437
11905.9 0.0974468
11906.5 0.109438
11907.1 0.123730
11907.6 0.138929
11908.1 0.157378
11908.3 0.168122
11908.6 0.180084
11908.8 0.193448
11909.0 0.207796
11909.2 0.216268
11909.3 0.224567
11909.4 0.234115
11909.5 0.243482
11909.7 0.254274
11909.8 0.264872
11909.9 0.277095
11910.0 0.289110
11910.2 0.302975
11910.3 0.316612
11910.4 0.332355
11910.5 0.347841
11910.7 0.365718
11910.8 0.383299
11910.9 0.401976
11911.0 0.421812
11911.1 0.439270
11911.2 0.455736
11911.3 0.472944
11911.4 0.490918
11911.5 0.511821
11911.6 0.531498
11911.7 0.552019
11911.8 0.573409
11911.9 0.593169
11911.9 0.611047
11912.0 0.629484
11912.1 0.648489
11912.1 0.670915
11912.2 0.691163
11912.3 0.712001
11912.4 0.733435
11912.4 0.758666
11912.5 0.781390
11912.6 0.804719
11912.6 0.828655
11912.7 0.853197
11912.8 0.878343
11912.9 0.930434
11913.0 0.973018
11913.1 1.01297
11913.2 1.05823
11913.3 1.10053
11913.5 1.14827
11913.6 1.19271
11913.7 1.24265
11913.8 1.28894
11913.9 1.35974
11914.1 1.42707
11914.2 1.50020
11914.3 1.56903
11914.5 1.64298
11914.6 1.71178
11914.9 1.85181
11915.2 1.98080
11915.5 2.10000
11915.8 2.22300
11916.1 2.31926
11916.4 2.37000
11916.6 2.40685
11916.8 2.42899
11917.0 2.43595
11917.3 2.42599
11917.5 2.39650
11917.7 2.36977
11917.8 2.33657
11918.0 2.29725
11918.1 2.25538
11918.2 2.20539
11918.4 2.15057
11918.5 2.09143
11918.7 2.03281
11919.0 1.90752
11919.2 1.77939
11919.5 1.64240
11919.8 1.50941
11920.1 1.37347
11920.3 1.24662
11920.6 1.12143
11920.9 1.00824
11921.2 0.899657
11921.4 0.800586
11921.7 0.711192
11922.0 0.634008
11922.3 0.562923
11922.5 0.502479
11922.8 0.447528
11923.1 0.401307
11923.4 0.359658
11923.6 0.324879
11923.9 0.293723
11924.2 0.267833
11924.6 0.235185
11924.8 0.221147
11925.0 0.127802
12000.0 0.127352
12500.0 0.124472
13000.0 0.121781
13500.0 0.119264
14000.0 0.116905
14500.0 0.114690
15000.0 0.112608
15500.0 0.110648
16000.0 0.108801
16500.0 0.107058
17000.0 0.105412
17500.0 0.103854
18000.0 0.102380
18500.0 0.100982
19000.0 0.0996561
20000.0 0.0972004
21000.0 0.0949783
22000.0 0.0929601
23000.0 0.0911212
24000.0 0.0894403
25000.0 0.0878986
26000.0 0.0864802
27000.0 0.0851715
28000.0 0.0839599
29000.0 0.0828349
30000.0 0.0817874
31000.0 0.0808090
32000.0 0.0798925
33000.0 0.0790316
34000.0 0.0782205
35000.0 0.0774543
36000.0 0.0767286
40000.0 0.0742565
50000.0 0.0695036
60000.0 0.0659306
70000.0 0.0651809
80000.0 0.0625189
90000.0 0.0604231
100000 0.0583014
110000 0.0564771
120000 0.0546494
130000 0.0533396
140000 0.0520642
150000 0.0506834
170000 0.0483028
190000 0.0463513
200000 0.0454126
240000 0.0424110
290000 0.0400719
340000 0.0386452
390000 0.0375649
440000 0.0369525
490000 0.0367684
495000 0.0368044
495000 0.0368044
500000 0.0368405
536000 0.0371001
536000 0.0368138
600000 0.0392536
700000 0.0437135
800000 0.0488498
900000 0.0546939
1.00000E+06 0.0612164
1.10000E+06 0.0682576
1.20000E+06 0.0761248
1.30000E+06 0.0846014
1.40000E+06 0.0939714
1.50000E+06 0.104350
1.60000E+06 0.115703
1.67184E+06 0.114578
1.67184E+06 0.114578
1.80000E+06 0.112572
1.82279E+06 0.107441
1.82279E+06 0.107441
1.90000E+06 0.0900561
2.00000E+06 0.0846299
2.10000E+06 0.0817290
2.13486E+06 0.0791125
2.13486E+06 0.0791124
2.18219E+06 0.0755601
2.18219E+06 0.0755600
2.20000E+06 0.0742231
2.20616E+06 0.0732149
2.20616E+06 0.0732148
2.30000E+06 0.0578436
2.33968E+06 0.0570396
2.33969E+06 0.0570395
2.40000E+06 0.0558175
2.44028E+06 0.0545828
2.44029E+06 0.0545826
2.49527E+06 0.0528973
2.49527E+06 0.0528973
2.50000E+06 0.0527522
2.60000E+06 0.0514239
2.60614E+06 0.0511421
2.60614E+06 0.0511420
2.66354E+06 0.0485069
2.66354E+06 0.0485068
2.67965E+06 0.0477672
2.67965E+06 0.0477671
2.70000E+06 0.0468329
2.70583E+06 0.0466334
2.70583E+06 0.0466333
2.72295E+06 0.0460476
2.72295E+06 0.0460475
2.74813E+06 0.0451861
2.74813E+06 0.0451861
2.80000E+06 0.0434111
2.81852E+06 0.0429258
2.81852E+06 0.0429258
2.90000E+06 0.0407902
3.00000E+06 0.0387421
4.00000E+06 0.0218111
5.00000E+06 0.0121484
6.00000E+06 0.00640714
6.33912E+06 0.00536050
7.00000E+06 0.00332081
8.00000E+06 0.00187051
9.00000E+06 0.00128911
1.00000E+07 0.00113094
1.05031E+07 0.00114570
1.05927E+07 0.00114833
1.05927E+07 0.00114833
1.10000E+07 0.00116028
1.20000E+07 0.00122247
1.30000E+07 0.00122675
1.40000E+07 0.00117757
1.45000E+07 0.00111965
1.50000E+07 0.00104928
1.60000E+07 0.000871160
1.63639E+07 0.000800886
1.70000E+07 0.000678042
1.80000E+07 0.000499103
1.90000E+07 0.000360316
1.92550E+07 0.000335703
1.92550E+07 0.000335700
2.00000E+07 0.000263793
