F-19(n,g) ENDFB-8.0
Energy(eV) XS(b)
1.00000E-05 0.481801
1.02415E-05 0.476087
1.04830E-05 0.470571
1.09660E-05 0.460091
1.14490E-05 0.450282
1.19320E-05 0.441074
1.22160E-05 0.435917
1.25000E-05 0.430936
1.28125E-05 0.425648
1.31250E-05 0.420551
1.31370E-05 0.420359
1.31661E-05 0.419894
1.31952E-05 0.419430
1.32534E-05 0.418508
1.33699E-05 0.416682
1.36028E-05 0.413099
1.40685E-05 0.406204
1.45343E-05 0.399643
1.50000E-05 0.393389
1.56165E-05 0.385546
1.62330E-05 0.378154
1.68495E-05 0.371171
1.74660E-05 0.364562
1.75000E-05 0.364208
1.75781E-05 0.363397
1.76563E-05 0.362592
1.78125E-05 0.360999
1.81250E-05 0.357873
1.87500E-05 0.351858
1.93750E-05 0.346136
2.00000E-05 0.340685
2.09210E-05 0.333102
2.18420E-05 0.326003
2.27630E-05 0.319340
2.36840E-05 0.313069
2.46370E-05 0.306955
2.55900E-05 0.301185
2.56250E-05 0.300979
2.57395E-05 0.300309
2.58540E-05 0.299643
2.60830E-05 0.298325
2.65410E-05 0.295740
2.65625E-05 0.295620
2.66205E-05 0.295297
2.66786E-05 0.294976
2.67946E-05 0.294337
2.70268E-05 0.293070
2.74910E-05 0.290585
2.75000E-05 0.290537
2.75277E-05 0.290391
2.75554E-05 0.290245
2.76108E-05 0.289954
2.77216E-05 0.289374
2.79432E-05 0.288224
2.83864E-05 0.285965
2.92728E-05 0.281602
3.01591E-05 0.277433
3.10455E-05 0.273444
3.19319E-05 0.269622
3.28183E-05 0.265956
3.37046E-05 0.262436
3.45910E-05 0.259052
3.50000E-05 0.257534
3.58885E-05 0.254326
3.67770E-05 0.251235
3.76655E-05 0.248254
3.85540E-05 0.245377
4.03310E-05 0.239910
4.21080E-05 0.234793
4.25000E-05 0.233708
4.34375E-05 0.231172
4.43750E-05 0.228717
4.62500E-05 0.224033
4.81250E-05 0.219625
5.00000E-05 0.215468
5.23438E-05 0.210589
5.46875E-05 0.206027
5.70313E-05 0.201749
5.93750E-05 0.197727
6.09375E-05 0.195176
6.25000E-05 0.192721
6.40625E-05 0.190356
6.56250E-05 0.188076
6.71875E-05 0.185876
6.87500E-05 0.183752
6.88740E-05 0.183586
6.92569E-05 0.183078
6.96398E-05 0.182574
7.04055E-05 0.181579
7.19370E-05 0.179635
7.50000E-05 0.175929
7.81250E-05 0.172375
8.12500E-05 0.169027
8.43750E-05 0.165867
8.75000E-05 0.162879
9.06250E-05 0.160046
9.37500E-05 0.157356
9.68750E-05 0.154797
0.000100000 0.152359
0.000103125 0.150033
0.000106250 0.147810
0.000106330 0.147754
0.000106622 0.147552
0.000106914 0.147351
0.000107497 0.146950
0.000108664 0.146159
0.000110998 0.144614
0.000115665 0.141666
0.000120333 0.138892
0.000125000 0.136274
0.000128065 0.134633
0.000131130 0.133051
0.000137260 0.130046
0.000137500 0.129932
0.000138281 0.129565
0.000139063 0.129200
0.000140625 0.128480
0.000143750 0.127076
0.000143990 0.126970
0.000144741 0.126640
0.000145493 0.126313
0.000146995 0.125666
0.000150000 0.124401
0.000155905 0.122022
0.000161810 0.119775
0.000167715 0.117647
0.000173620 0.115629
0.000175000 0.115173
0.000178125 0.114158
0.000181250 0.113169
0.000187500 0.111267
0.000193750 0.109458
0.000200000 0.107734
0.000205236 0.106351
0.000210473 0.105020
0.000215709 0.103737
0.000220945 0.102501
0.000226181 0.101307
0.000231418 0.100154
0.000241890 0.0979623
0.000247743 0.0967983
0.000253595 0.0956748
0.000265300 0.0935404
0.000265625 0.0934832
0.000266797 0.0932777
0.000267969 0.0930735
0.000270313 0.0926691
0.000275000 0.0918759
0.000284280 0.0903639
0.000293560 0.0889241
0.000293750 0.0888954
0.000294336 0.0888068
0.000294922 0.0887186
0.000296094 0.0885428
0.000298438 0.0881945
0.000303125 0.0875099
0.000312500 0.0861872
0.000321875 0.0849228
0.000331250 0.0837125
0.000331340 0.0837011
0.000331632 0.0836643
0.000331923 0.0836275
0.000332506 0.0835542
0.000333673 0.0834080
0.000336005 0.0831180
0.000340670 0.0825470
0.000350000 0.0814393
0.000358713 0.0804442
0.000367425 0.0794847
0.000376138 0.0785588
0.000384850 0.0776645
0.000402275 0.0759638
0.000419700 0.0743701
0.000425000 0.0739050
0.000440848 0.0725644
0.000456695 0.0712943
0.000472543 0.0700886
0.000488390 0.0689421
0.000500000 0.0681370
0.000515625 0.0670967
0.000531250 0.0661026
0.000546875 0.0651514
0.000562500 0.0642402
0.000563490 0.0641837
0.000567334 0.0639659
0.000571179 0.0637503
0.000578868 0.0633255
0.000594245 0.0625008
0.000609623 0.0617074
0.000625000 0.0609436
0.000649000 0.0598061
0.000673000 0.0587301
0.000697000 0.0577101
0.000721000 0.0567414
0.000750000 0.0556336
0.000773438 0.0547842
0.000796875 0.0539726
0.000820313 0.0531959
0.000843750 0.0524519
0.000845310 0.0524035
0.000849021 0.0522888
0.000852733 0.0521749
0.000860155 0.0519493
0.000875000 0.0515067
0.000906250 0.0506109
0.000937500 0.0497602
0.000968750 0.0489511
0.00100000 0.0481801
0.00104688 0.0470891
0.00109375 0.0460690
0.00114063 0.0451125
0.00118750 0.0442131
0.00118920 0.0441815
0.00119300 0.0441111
0.00119680 0.0440410
0.00120440 0.0439018
0.00121960 0.0436274
0.00125000 0.0430936
0.00128125 0.0425649
0.00131250 0.0420551
0.00134375 0.0415632
0.00137500 0.0410882
0.00137690 0.0410598
0.00138459 0.0409456
0.00139229 0.0408323
0.00140768 0.0406085
0.00143845 0.0401717
0.00150000 0.0393389
0.00156250 0.0385441
0.00156320 0.0385355
0.00156465 0.0385177
0.00156609 0.0384999
0.00156898 0.0384645
0.00157476 0.0383938
0.00158631 0.0382537
0.00160943 0.0379781
0.00165565 0.0374441
0.00170188 0.0369321
0.00174810 0.0364406
0.00175000 0.0364208
0.00175391 0.0363802
0.00175781 0.0363397
0.00176563 0.0362593
0.00178125 0.0360999
0.00181250 0.0357873
0.00187500 0.0351858
0.00193750 0.0346136
0.00200000 0.0340685
0.00208480 0.0333684
0.00216960 0.0327098
0.00225440 0.0320887
0.00233920 0.0315017
0.00244190 0.0308322
0.00254460 0.0302036
0.00264730 0.0296119
0.00275000 0.0290537
0.00281955 0.0286932
0.00288910 0.0283457
0.00295865 0.0280105
0.00302820 0.0276870
0.00316730 0.0270722
0.00330640 0.0264966
0.00331250 0.0264722
0.00333594 0.0263791
0.00335938 0.0262869
0.00340625 0.0261054
0.00350000 0.0257534
0.00364063 0.0252511
0.00378125 0.0247771
0.00392188 0.0243288
0.00406250 0.0239041
0.00406760 0.0238891
0.00407900 0.0238557
0.00409040 0.0238224
0.00411320 0.0237563
0.00415880 0.0236257
0.00425000 0.0233708
0.00443750 0.0228717
0.00462500 0.0224033
0.00481250 0.0219626
0.00500000 0.0215468
0.00514054 0.0212503
0.00528108 0.0209656
0.00542161 0.0206921
0.00556215 0.0204290
0.00570269 0.0201757
0.00584323 0.0199316
0.00598376 0.0196962
0.00612430 0.0194689
0.00625000 0.0192721
0.00640625 0.0190356
0.00656250 0.0188076
0.00657030 0.0187965
0.00658852 0.0187705
0.00660674 0.0187446
0.00664318 0.0186931
0.00671605 0.0185914
0.00686180 0.0183929
0.00687500 0.0183752
0.00691406 0.0183232
0.00695313 0.0182717
0.00703125 0.0181699
0.00718750 0.0179713
0.00750000 0.0175929
0.00780920 0.0172411
0.00811840 0.0169096
0.00812500 0.0169028
0.00814453 0.0168825
0.00816406 0.0168623
0.00820313 0.0168221
0.00828125 0.0167425
0.00843750 0.0165868
0.00875000 0.0162879
0.00906250 0.0160046
0.00937500 0.0157356
0.00968750 0.0154797
0.0100000 0.0152360
0.0103110 0.0150044
0.0106220 0.0147831
0.0106250 0.0147811
0.0106323 0.0147760
0.0106397 0.0147709
0.0106543 0.0147607
0.0106836 0.0147405
0.0107422 0.0147002
0.0108594 0.0146207
0.0110938 0.0144654
0.0115625 0.0141692
0.0120313 0.0138904
0.0125000 0.0136275
0.0128125 0.0134603
0.0131250 0.0132991
0.0134375 0.0131435
0.0137500 0.0129933
0.0143750 0.0127077
0.0150000 0.0124401
0.0156250 0.0121888
0.0162500 0.0119521
0.0168750 0.0117287
0.0175000 0.0115173
0.0181250 0.0113170
0.0187500 0.0111268
0.0193750 0.0109459
0.0200000 0.0107735
0.0206625 0.0105994
0.0213250 0.0104334
0.0219875 0.0102750
0.0226500 0.0101236
0.0226790 0.0101172
0.0227609 0.0100989
0.0228428 0.0100808
0.0230066 0.0100449
0.0233343 0.00997410
0.0239895 0.00983694
0.0246448 0.00970528
0.0253000 0.00957877
0.0264578 0.00936684
0.0276156 0.00916837
0.0287734 0.00898201
0.0299313 0.00880657
0.0307031 0.00869517
0.0314750 0.00858789
0.0330188 0.00838472
0.0345625 0.00819533
0.0361063 0.00801821
0.0376490 0.00785221
0.0376500 0.00785211
0.0376564 0.00785144
0.0376627 0.00785078
0.0376754 0.00784946
0.0377008 0.00784681
0.0377517 0.00784152
0.0378534 0.00783099
0.0380567 0.00781004
0.0384634 0.00776864
0.0392768 0.00768778
0.0409035 0.00753336
0.0425303 0.00738788
0.0441570 0.00725052
0.0456178 0.00713349
0.0470785 0.00702196
0.0485393 0.00691550
0.0500000 0.00681373
0.0523293 0.00666037
0.0546585 0.00651692
0.0569878 0.00638235
0.0593170 0.00625579
0.0593750 0.00625273
0.0595703 0.00624247
0.0597656 0.00623227
0.0601563 0.00621200
0.0609375 0.00617205
0.0625000 0.00609441
0.0656250 0.00594754
0.0687500 0.00581080
0.0718750 0.00568307
0.0750000 0.00556341
0.0781250 0.00545100
0.0812500 0.00534515
0.0843750 0.00524523
0.0875000 0.00515072
0.0906250 0.00506114
0.0937500 0.00497608
0.0968750 0.00489517
0.100000 0.00481808
0.105651 0.00468747
0.111301 0.00456694
0.116952 0.00445525
0.122603 0.00435137
0.125000 0.00430944
0.131162 0.00420698
0.137325 0.00411150
0.143487 0.00402224
0.149649 0.00393856
0.150000 0.00393395
0.150781 0.00392375
0.151563 0.00391362
0.153125 0.00389360
0.156250 0.00385447
0.156280 0.00385411
0.156353 0.00385320
0.156426 0.00385230
0.156572 0.00385050
0.156865 0.00384691
0.157450 0.00383976
0.158620 0.00382557
0.160960 0.00379767
0.165640 0.00374364
0.175000 0.00364217
0.181250 0.00357884
0.187500 0.00351870
0.200000 0.00340699
0.210246 0.00332295
0.220492 0.00324482
0.230738 0.00317196
0.240984 0.00310379
0.246875 0.00306653
0.246914 0.00306629
0.247024 0.00306561
0.247133 0.00306493
0.247353 0.00306357
0.247792 0.00306086
0.248669 0.00305545
0.250425 0.00304472
0.253935 0.00302360
0.260957 0.00298264
0.275000 0.00290549
0.287557 0.00284135
0.300114 0.00278129
0.312671 0.00272488
0.325228 0.00267178
0.350000 0.00257550
0.368387 0.00251040
0.386774 0.00244999
0.405161 0.00239373
0.423548 0.00234119
0.425000 0.00233719
0.429174 0.00232579
0.433348 0.00231456
0.441696 0.00229259
0.458393 0.00225045
0.491785 0.00217273
0.500000 0.00215481
0.523265 0.00210637
0.546530 0.00206105
0.593061 0.00197854
0.593750 0.00197739
0.595703 0.00197415
0.597656 0.00197092
0.601563 0.00196451
0.609375 0.00195188
0.625000 0.00192733
0.682586 0.00184426
0.740173 0.00177108
0.750000 0.00175944
0.781250 0.00172390
0.812500 0.00169043
0.875000 0.00162893
0.937500 0.00157371
1.00000 0.00152375
1.09349 0.00145717
1.18698 0.00139863
1.18750 0.00139832
1.18945 0.00139718
1.19141 0.00139603
1.19531 0.00139375
1.20313 0.00138922
1.21875 0.00138028
1.25000 0.00136292
1.31250 0.00133009
1.31439 0.00132913
1.32019 0.00132621
1.32599 0.00132331
1.33759 0.00131756
1.36079 0.00130630
1.40719 0.00128460
1.50000 0.00124424
1.62500 0.00119546
1.75000 0.00115197
1.87500 0.00111292
2.00000 0.00107760
2.14063 0.00104163
2.28125 0.00100904
2.28253 0.00100876
2.28598 0.00100799
2.28944 0.00100723
2.29634 0.00100572
2.31015 0.00100271
2.33777 0.000996768
2.39300 0.000985195
2.50348 0.000963211
2.72442 0.000923332
2.75000 0.000919028
2.84309 0.000903861
2.93618 0.000889428
2.93750 0.000889228
2.94190 0.000888565
2.94629 0.000887902
2.95508 0.000886582
2.97266 0.000883960
3.00781 0.000878786
3.07813 0.000868701
3.21875 0.000849518
3.50000 0.000814676
3.82612 0.000779207
4.15225 0.000747993
4.25000 0.000739349
4.50000 0.000718522
5.00000 0.000681705
5.46475 0.000652105
5.92950 0.000626049
5.93750 0.000625627
5.95703 0.000624602
5.97656 0.000623581
6.01563 0.000621556
6.09375 0.000617562
6.25000 0.000609803
6.82551 0.000583576
7.40102 0.000560449
7.50000 0.000556741
7.81250 0.000545500
8.12500 0.000534933
8.75000 0.000515489
9.37500 0.000498039
10.0000 0.000482244
10.6250 0.000467881
10.6461 0.000467419
10.7216 0.000465774
10.7970 0.000464146
10.9480 0.000460943
11.2500 0.000454733
11.2623 0.000454486
11.3010 0.000453709
11.3397 0.000452937
11.4170 0.000451404
11.5717 0.000448388
11.8812 0.000442541
12.5000 0.000431479
13.1250 0.000421106
13.1293 0.000421038
13.1439 0.000420804
13.1585 0.000420571
13.1877 0.000420105
13.2462 0.000419180
13.3631 0.000417346
13.5969 0.000413752
14.0646 0.000406833
15.0000 0.000393974
15.0148 0.000393780
15.0536 0.000393273
15.0924 0.000392768
15.1701 0.000391764
15.3254 0.000389780
15.6361 0.000385904
16.2574 0.000378495
17.5000 0.000364838
20.0000 0.000341344
21.8750 0.000326429
23.7500 0.000313322
24.0000 0.000311691
24.8734 0.000306220
25.7468 0.000301028
27.4936 0.000291400
27.5000 0.000291367
27.5214 0.000291255
27.5427 0.000291143
27.5854 0.000290920
27.6709 0.000290475
27.8417 0.000289593
28.1834 0.000287850
28.8668 0.000284453
30.2337 0.000278006
32.9673 0.000266355
35.0000 0.000258579
35.0457 0.000258412
35.1622 0.000257988
35.2787 0.000257566
35.5116 0.000256729
35.9775 0.000255074
36.9093 0.000251866
38.7729 0.000245795
42.5000 0.000234877
46.2307 0.000225293
46.2500 0.000225247
46.3086 0.000225106
46.3672 0.000224965
46.4844 0.000224684
46.7188 0.000224126
47.1875 0.000223020
48.1250 0.000220856
50.0000 0.000216725
56.2402 0.000204457
56.2500 0.000204439
56.2744 0.000204395
56.2988 0.000204351
56.3477 0.000204263
56.4453 0.000204088
56.6406 0.000203740
57.0313 0.000203048
57.8125 0.000201682
59.3750 0.000199037
62.5000 0.000194045
73.7787 0.000178746
75.0000 0.000177301
79.6875 0.000172056
84.3750 0.000167259
84.4920 0.000167144
84.8680 0.000166777
85.2440 0.000166413
85.9960 0.000165689
87.5000 0.000164273
90.6250 0.000161448
93.7500 0.000158754
100.000 0.000153768
106.250 0.000149271
106.418 0.000149156
106.999 0.000148761
107.579 0.000148371
108.741 0.000147594
111.064 0.000146081
115.709 0.000143179
125.000 0.000137881
143.750 0.000128778
143.876 0.000128723
144.258 0.000128557
144.641 0.000128393
145.407 0.000128065
146.938 0.000127410
150.000 0.000126132
153.000 0.000124919
156.250 0.000123714
156.309 0.000123693
156.455 0.000123640
156.601 0.000123588
156.893 0.000123483
157.477 0.000123275
158.645 0.000122860
160.982 0.000122041
165.654 0.000120449
175.000 0.000117455
200.000 0.000110483
238.045 0.000102002
255.765 9.87026E-05
256.250 9.86170E-05
257.422 9.84122E-05
258.594 9.82082E-05
260.938 9.78009E-05
265.625 9.70070E-05
275.000 9.54765E-05
311.906 9.01206E-05
312.500 9.00427E-05
314.844 8.97392E-05
317.188 8.94364E-05
321.875 8.88315E-05
331.250 8.76719E-05
350.000 8.54882E-05
421.352 7.85140E-05
425.000 7.82062E-05
434.375 7.74281E-05
443.750 7.66739E-05
462.500 7.52328E-05
500.000 7.25953E-05
604.376 6.65487E-05
625.000 6.55335E-05
687.500 6.27333E-05
750.000 6.02804E-05
812.200 5.81178E-05
812.500 5.81080E-05
813.464 5.80766E-05
814.428 5.80454E-05
816.356 5.79835E-05
820.211 5.78596E-05
827.922 5.76119E-05
843.344 5.71258E-05
874.189 5.61905E-05
875.000 5.61666E-05
876.953 5.61096E-05
878.906 5.60529E-05
882.813 5.59393E-05
890.625 5.57133E-05
906.250 5.52741E-05
937.500 5.44180E-05
938.077 5.44027E-05
940.012 5.43519E-05
941.947 5.43016E-05
945.818 5.42012E-05
953.558 5.40005E-05
969.039 5.35997E-05
1000.00 5.28348E-05
1062.34 5.15844E-05
1062.50 5.15814E-05
1062.87 5.15744E-05
1063.23 5.15674E-05
1063.97 5.15534E-05
1065.43 5.15257E-05
1068.36 5.14703E-05
1074.22 5.13596E-05
1085.94 5.11383E-05
1109.38 5.07090E-05
1156.25 4.98874E-05
1250.00 4.83756E-05
1311.88 4.75344E-05
1312.50 4.75265E-05
1313.97 4.75082E-05
1315.43 4.74899E-05
1318.36 4.74536E-05
1324.22 4.73810E-05
1335.94 4.72358E-05
1359.38 4.69476E-05
1406.25 4.63954E-05
1500.00 4.53589E-05
1501.66 4.53413E-05
1562.50 4.47161E-05
1563.96 4.47014E-05
1569.77 4.46441E-05
1575.58 4.45873E-05
1587.21 4.44736E-05
1610.47 4.42462E-05
1656.98 4.38078E-05
1750.00 4.29788E-05
2000.00 4.10189E-05
2279.02 3.96213E-05
2281.25 3.96111E-05
2369.15 3.92162E-05
2375.00 3.91908E-05
2398.44 3.90901E-05
2421.88 3.89893E-05
2468.75 3.87910E-05
2562.50 3.84116E-05
2750.00 3.76979E-05
3000.00 3.68376E-05
3500.00 3.59340E-05
4000.00 3.51694E-05
4062.50 3.51420E-05
4250.00 3.50640E-05
4437.50 3.49860E-05
4500.00 3.49601E-05
4750.00 3.48675E-05
5000.00 3.47762E-05
5500.00 3.50050E-05
6000.00 3.52172E-05
6250.00 3.55039E-05
7000.00 3.63182E-05
7250.00 3.67579E-05
7500.00 3.71867E-05
8000.00 3.80249E-05
8750.00 3.97385E-05
9000.00 4.03531E-05
10000.0 4.33757E-05
10500.0 4.52940E-05
11000.0 4.72242E-05
12813.1 6.25819E-05
14626.1 7.79496E-05
15532.7 8.56335E-05
15985.9 8.94755E-05
16439.2 0.000100901
18252.3 0.000148230
19000.0 0.000167872
20000.0 0.000235980
21000.0 0.000304420
21500.0 0.000372980
21750.0 0.000407365
21875.0 0.000424557
22000.0 0.000453763
22500.0 0.000583822
23000.0 0.000714436
23250.0 0.000822691
23375.0 0.000885485
23500.0 0.00100511
24000.0 0.00148374
24500.0 0.00196238
24562.5 0.00202291
24625.0 0.00215561
24750.0 0.00244878
25000.0 0.00303897
25087.5 0.00334238
25131.3 0.00349630
25175.0 0.00371500
25350.0 0.00472381
25525.0 0.00573262
25546.9 0.00586261
25568.8 0.00607019
25612.5 0.00660846
25700.0 0.00768808
25875.0 0.00985025
25885.9 0.0100180
25896.9 0.0102680
25918.8 0.0109039
25962.5 0.0122037
26050.0 0.0148032
26137.5 0.0174027
26181.3 0.0187025
26203.1 0.0194133
26214.1 0.0199731
26225.0 0.0206981
26268.8 0.0237782
26312.5 0.0268612
26356.3 0.0299442
26378.1 0.0314867
26389.1 0.0322733
26400.0 0.0331653
26412.5 0.0344273
26425.0 0.0358108
26437.5 0.0372567
26450.0 0.0388471
26475.0 0.0424203
26487.5 0.0442553
26500.0 0.0462123
26512.5 0.0484344
26525.0 0.0507786
26537.5 0.0531495
26550.0 0.0556908
26562.5 0.0586017
26575.0 0.0616829
26587.5 0.0647993
26600.0 0.0681280
26612.5 0.0719173
26625.0 0.0759258
26637.5 0.0800806
26643.8 0.0823335
26650.0 0.0847786
26662.5 0.0901709
26675.0 0.0958185
26687.5 0.101535
26693.8 0.104525
26700.0 0.107755
26712.5 0.115065
26725.0 0.122880
26737.5 0.130786
26743.8 0.134878
26750.0 0.139259
26756.3 0.144068
26762.5 0.149273
26775.0 0.160232
26787.5 0.171382
26800.0 0.183219
26812.5 0.196546
26825.0 0.210786
26837.5 0.226071
26850.0 0.242713
26862.5 0.260709
26875.0 0.279269
26900.0 0.316636
26925.0 0.353623
26937.5 0.371773
26950.0 0.388774
26956.3 0.395929
26962.5 0.401828
26975.0 0.411002
26987.5 0.418987
26993.8 0.422358
27000.0 0.424540
27004.0 0.425047
27010.0 0.424518
27016.0 0.422893
27028.0 0.418037
27034.0 0.414684
27040.0 0.410343
27046.0 0.404940
27052.0 0.398596
27064.0 0.384027
27076.0 0.368275
27088.0 0.351264
27100.0 0.333286
27125.0 0.295493
27137.5 0.276715
27150.0 0.258760
27162.5 0.242408
27175.0 0.226745
27187.5 0.211202
27200.0 0.196306
27206.3 0.189435
27212.5 0.182990
27225.0 0.171148
27237.5 0.160102
27250.0 0.149773
27262.5 0.140728
27275.0 0.132281
27287.5 0.123935
27300.0 0.116040
27312.5 0.109110
27325.0 0.102734
27337.5 0.0968422
27350.0 0.0915510
27362.5 0.0868428
27375.0 0.0823790
27387.5 0.0779562
27400.0 0.0737399
27412.5 0.0700698
27425.0 0.0667573
27437.5 0.0635182
27450.0 0.0604507
27462.5 0.0577449
27475.0 0.0552088
27500.0 0.0502952
27512.5 0.0481703
27525.0 0.0462182
27550.0 0.0424726
27575.0 0.0392909
27600.0 0.0363020
27625.0 0.0337579
27650.0 0.0313516
27675.0 0.0292351
27700.0 0.0273434
27750.0 0.0240724
27775.0 0.0226730
27800.0 0.0213742
27850.0 0.0194841
27900.0 0.0176563
27950.0 0.0158285
27975.0 0.0149148
27987.5 0.0144653
28000.0 0.0140769
28015.6 0.0137424
28031.3 0.0134604
28062.5 0.0128999
28125.0 0.0117788
28250.0 0.00953660
28312.5 0.00843555
28328.1 0.00825752
28343.8 0.00812723
28375.0 0.00787319
28500.0 0.00685712
28625.0 0.00584105
28687.5 0.00533302
28718.8 0.00508371
28750.0 0.00493382
28875.0 0.00448426
29000.0 0.00403473
29250.0 0.00313569
29312.5 0.00293177
29375.0 0.00282404
29500.0 0.00261058
29750.0 0.00218366
29875.0 0.00197708
30000.0 0.00183434
30500.0 0.00146981
30750.0 0.00128832
31000.0 0.00112719
32000.0 0.000786077
32500.0 0.000689257
32750.0 0.000641125
33000.0 0.000609777
34000.0 0.000495146
35000.0 0.000431052
36000.0 0.000386998
37000.0 0.000367702
37500.0 0.000358093
38000.0 0.000355048
40000.0 0.000377984
41750.0 0.000461716
41859.4 0.000466994
41968.8 0.000479315
42187.5 0.000512953
42625.0 0.000580230
43062.5 0.000647506
43281.3 0.000681144
43390.6 0.000697996
43418.0 0.000711242
43445.3 0.000773622
43472.7 0.000856577
43479.5 0.000906958
43482.9 0.000959922
43486.3 0.00104976
43489.8 0.00119712
43493.2 0.00142476
43496.6 0.00175450
43500.0 0.00220070
43502.5 0.00260609
43505.0 0.00307612
43510.0 0.00418831
43520.0 0.00686765
43540.0 0.0127228
43560.0 0.0185167
43570.0 0.0208046
43575.0 0.0213918
43580.0 0.0214001
43587.0 0.0203463
43594.0 0.0182733
43608.0 0.0127674
43622.0 0.00711969
43625.5 0.00584657
43629.0 0.00469156
43632.5 0.00368846
43636.0 0.00286199
43639.1 0.00229172
43642.1 0.00185949
43645.2 0.00154754
43648.2 0.00133670
43651.3 0.00120186
43654.3 0.00112153
43660.4 0.00105305
43684.9 0.00103398
43733.8 0.00103665
43831.5 0.00104200
44027.0 0.00105271
44418.0 0.00107412
44809.0 0.00109552
45004.5 0.00110623
45053.4 0.00111016
45102.3 0.00113147
45200.0 0.00118022
45500.0 0.00135671
45650.0 0.00146458
45725.0 0.00151980
45800.0 0.00158180
46100.0 0.00187465
46300.0 0.00212018
46400.0 0.00226312
46700.0 0.00279122
46850.0 0.00312904
47000.0 0.00353013
47300.0 0.00459124
47375.0 0.00492958
47412.5 0.00510852
47450.0 0.00531620
47600.0 0.00616625
47750.0 0.00727353
47825.0 0.00785180
47900.0 0.00854564
48050.0 0.0102407
48125.0 0.0110961
48162.5 0.0115820
48200.0 0.0121037
48500.0 0.0168821
48650.0 0.0192332
48725.0 0.0203900
48762.5 0.0208568
48800.0 0.0212771
48854.3 0.0217449
48881.4 0.0218668
48908.5 0.0219327
49017.0 0.0221579
49058.5 0.0219930
49100.0 0.0217757
49175.0 0.0210957
49250.0 0.0201007
49325.0 0.0190810
49400.0 0.0178831
49550.0 0.0153830
49700.0 0.0130166
49737.5 0.0125092
49775.0 0.0120264
49850.0 0.0110610
49925.0 0.0100956
49962.5 0.00962721
50000.0 0.00922826
50150.0 0.00791917
50225.0 0.00726942
50262.5 0.00694503
50281.3 0.00679048
50300.0 0.00665794
50375.0 0.00622593
50450.0 0.00580058
50600.0 0.00495559
50637.5 0.00478338
50675.0 0.00463462
50750.0 0.00435731
50900.0 0.00380693
51050.0 0.00338012
51087.5 0.00327590
51125.0 0.00318421
51200.0 0.00300910
51500.0 0.00243984
51650.0 0.00221500
51800.0 0.00202081
52100.0 0.00170597
52337.5 0.00151889
52456.3 0.00142600
52485.9 0.00140446
52515.6 0.00138938
52575.0 0.00136199
52812.5 0.00125247
53050.0 0.00114294
53525.0 0.000923889
53584.4 0.000901427
53643.8 0.000885090
53762.5 0.000852436
54000.0 0.000787531
54500.0 0.000691011
54750.0 0.000642952
54875.0 0.000621026
55000.0 0.000605750
55500.0 0.000544654
55750.0 0.000514106
56000.0 0.000494525
57000.0 0.000428004
57500.0 0.000394744
57750.0 0.000378290
58000.0 0.000367719
60000.0 0.000310513
61718.0 0.000285986
62000.0 0.000283382
64000.0 0.000273343
64930.0 0.000272753
66000.0 0.000274738
68000.0 0.000285233
70000.0 0.000304219
72000.0 0.000332212
74000.0 0.000371094
75000.0 0.000397921
75500.0 0.000412541
75750.0 0.000419850
75875.0 0.000423505
75937.5 0.000425333
75968.8 0.000426492
75984.4 0.000429929
76000.0 0.000445237
76015.4 0.000479267
76030.8 0.000524996
76061.6 0.000622257
76123.3 0.000817311
76246.5 0.00120745
76493.0 0.00198773
76986.0 0.00354829
77479.0 0.00510885
77725.5 0.00588913
77848.8 0.00627927
77910.4 0.00647435
77941.2 0.00656240
77956.6 0.00650885
77964.3 0.00636507
77972.0 0.00608892
78000.0 0.00445163
78007.1 0.00417302
78014.1 0.00400134
78028.2 0.00386404
78056.4 0.00379743
78112.7 0.00369345
78225.4 0.00348550
78450.8 0.00306962
78901.5 0.00223785
79352.3 0.00140608
79803.0 0.000585462
80000.0 0.000583044
82000.0 0.000699128
82500.0 0.000735349
83000.0 0.000777597
84000.0 0.000863578
85000.0 0.000976920
85500.0 0.00103368
85750.0 0.00106205
86000.0 0.00109327
88000.0 0.00141759
89000.0 0.00162742
90000.0 0.00187531
92000.0 0.00250058
94000.0 0.00326481
96000.0 0.00395850
97000.0 0.00414694
97125.0 0.00416783
97250.0 0.00417150
97500.0 0.00417820
98000.0 0.00419105
98022.0 0.00418994
98083.8 0.00418265
98145.6 0.00417481
98269.3 0.00415912
98516.5 0.00412774
98763.8 0.00409635
98887.4 0.00408066
99011.0 0.00405517
99505.5 0.00393103
99752.8 0.00386896
100000 0.00379493
101000 0.00344567
102000 0.00306576
103000 0.00269430
104000 0.00235188
106000 0.00178926
108000 0.00137866
108500 0.00129716
109000 0.00122594
110000 0.00108366
110500 0.00102406
111000 0.000971070
112000 0.000869778
113000 0.000788019
113500 0.000747777
114000 0.000712726
115840 0.000603230
116045 0.000592690
116250 0.000582395
116250 0.000582390
116250 0.000582386
119880 0.000440980
120000 0.000438930
121670 0.000388090
122640 0.000364210
125190 0.000312390
126400 0.000292110
130000 0.000243770
130050 0.000243200
134240 0.000203210
140000 0.000165700
141100 0.000160100
148500 0.000130970
150000 0.000126450
156570 0.000110510
165190 9.67500E-05
172900 0.000151800
173400 0.000889160
173500 0.00338470
173700 0.00293780
174100 0.000209920
183200 8.20010E-05
185860 8.08110E-05
190000 7.95190E-05
192590 7.89990E-05
197510 7.85640E-05
200000 7.86080E-05
200010 7.86087E-05
201100 7.86830E-05
207460 7.98150E-05
210000 8.06170E-05
210720 8.08840E-05
211590 8.12310E-05
218630 8.51280E-05
219340 8.56440E-05
220000 8.61470E-05
227030 9.31820E-05
228620 9.53040E-05
230000 9.73510E-05
235970 0.000109120
239060 0.000117860
239330 0.000118740
240000 0.000121030
243550 0.000135930
245300 0.000145520
250000 0.000183250
250170 0.000185070
250700 0.000191030
252000 0.000207630
252760 0.000218870
254000 0.000240180
254560 0.000251250
256000 0.000284820
258000 0.000347950
258500 0.000367740
259240 0.000400830
260000 0.000440340
261190 0.000516320
262000 0.000580460
262510 0.000627190
262850 0.000661470
264000 0.000799130
264310 0.000842800
265870 0.00111330
266000 0.00114000
267430 0.00148640
268000 0.00179740
268470 0.00227510
268500 0.00213340
269560 0.00196870
269580 0.00197190
270000 0.00203150
270260 0.00205940
270910 0.00209080
270940 0.00209090
271530 0.00206590
272000 0.00201310
273480 0.00171740
274000 0.00159200
276000 0.00114370
276060 0.00113219
276110 0.00112260
276600 0.00103340
278000 0.000823520
278350 0.000780470
280000 0.000620690
280110 0.000612500
281580 0.000571260
282000 0.000733590
282160 0.00103320
283720 0.000435410
284000 0.000413280
286000 0.000331740
286840 0.000309930
287110 0.000303690
288000 0.000285200
290000 0.000252670
290250 0.000249290
290680 0.000243780
292960 0.000219850
294730 0.000206060
295000 0.000204250
299220 0.000183810
300000 0.000181430
303810 0.000176990
304500 0.000178400
305000 0.000180380
307590 0.000255340
308730 0.00105560
309130 0.00860020
309260 0.0161720
309330 0.0116540
309410 0.00633420
309490 0.00364480
309540 0.00272100
309640 0.00168420
309740 0.00116030
310000 0.000603020
310130 0.000484380
311010 0.000242660
311970 0.000194870
315000 0.000168540
316440 0.000166420
317230 0.000165970
320000 0.000166520
323650 0.000170100
325000 0.000172000
329040 0.000179220
330000 0.000181270
335000 0.000193940
335920 0.000196650
339440 0.000208210
340000 0.000210220
343540 0.000224200
345000 0.000230620
348370 0.000247050
350000 0.000255860
354390 0.000282790
355000 0.000286930
360000 0.000325060
363160 0.000353440
365000 0.000371680
365740 0.000379400
367240 0.000395740
370000 0.000428460
370810 0.000438796
370960 0.000440710
375000 0.000498330
376210 0.000518210
378610 0.000565010
379230 0.000580090
379410 0.000584860
380000 0.000602230
381570 0.000673790
381730 0.000685180
382690 0.000795930
383000 0.000862240
383680 0.00116570
383730 0.00120530
384490 0.00311200
385050 0.0195060
385310 0.0185390
385760 0.00400880
385960 0.00265750
386000 0.00248540
386020 0.00240750
386180 0.00192980
386310 0.00167240
386570 0.00134820
387110 0.00103600
387540 0.000924180
388190 0.000839340
388360 0.000825810
388520 0.000815140
389000 0.000791920
389010 0.000791540
390700 0.000761250
392000 0.000758140
393820 0.000761740
395000 0.000765210
397620 0.000770690
398960 0.000771180
400000 0.000770260
404000 0.000756300
406340 0.000742060
407690 0.000732870
408000 0.000730760
411380 0.000712230
412000 0.000711070
412820 0.000711800
414850 0.000733830
416000 0.000771020
416760 0.000812550
416840 0.000817860
418230 0.000931750
419300 0.000988460
420000 0.000964600
420480 0.000922010
421150 0.000847360
421610 0.000796500
421910 0.000765830
422000 0.000757110
422390 0.000722040
423130 0.000667100
424000 0.000618430
424310 0.000604260
425770 0.000552560
426900 0.000523630
427760 0.000505520
428000 0.000500920
428590 0.000490280
430680 0.000458370
431740 0.000444620
432000 0.000441430
434230 0.000416550
436000 0.000399290
439180 0.000372440
440000 0.000366250
444000 0.000339700
445660 0.000330320
446090 0.000328040
448000 0.000318610
449040 0.000313950
452000 0.000302570
456000 0.000291740
460000 0.000286820
461060 0.000286690
461970 0.000287030
465590 0.000293270
470000 0.000315640
475000 0.000375870
475100 0.000377660
475340 0.000382100
480000 0.000570820
481580 0.000582400
484370 0.000734730
485000 0.000774340
486320 0.000856850
487000 0.000895970
487820 0.000936400
488170 0.000950550
489000 0.000974630
489920 0.000983210
490500 0.000978090
490940 0.000968860
492000 0.000929670
492750 0.000890320
494000 0.000811870
494060 0.000807841
494800 0.000758150
496000 0.000679240
496160 0.000669210
497330 0.000603490
497570 0.000593320
498050 0.000585660
498800 0.000899800
500000 0.000477640
501080 0.000425370
505000 0.000312740
505140 0.000309790
507710 0.000264250
509520 0.000239870
510000 0.000234230
511270 0.000220690
514010 0.000197070
517850 0.000173050
518400 0.000170250
520000 0.000162820
523950 0.000148190
528780 0.000135480
529510 0.000133940
530000 0.000132950
540000 0.000119710
541970 0.000118440
550000 0.000117590
556060 0.000122430
556470 0.000122970
560000 0.000129150
564080 0.000140510
569010 0.000163710
570000 0.000170210
575000 0.000218720
579580 0.000304950
580000 0.000316370
582990 0.000426650
584650 0.000520290
585000 0.000544330
587000 0.000721970
587320 0.000758360
588310 0.000889320
589000 0.00100000
590850 0.00140030
591000 0.00144060
592250 0.00182790
593000 0.00210260
593520 0.00230560
594930 0.00278370
595000 0.00279760
595470 0.00284990
596200 0.00280240
596900 0.00266440
597000 0.00264010
597180 0.00259400
597890 0.00238920
598590 0.00216400
599000 0.00202850
599300 0.00192990
600150 0.00166250
600560 0.00154310
601000 0.00142330
601970 0.00119160
603000 0.000991650
603800 0.000864890
604230 0.000805570
605000 0.000712570
606620 0.000561230
609120 0.000407580
610000 0.000368810
613240 0.000267820
617750 0.000191010
619580 0.000173960
620000 0.000171680
620280 0.000170770
621270 0.000175790
623940 0.000249540
626480 0.000125710
635350 8.85230E-05
640000 7.89670E-05
641110 7.71290E-05
648450 6.79420E-05
661270 5.96410E-05
667690 5.78460E-05
677770 5.77310E-05
680000 5.81550E-05
680280 5.82200E-05
685240 5.98740E-05
696490 6.79880E-05
700000 7.22370E-05
703970 7.84420E-05
710000 9.16710E-05
712160 9.78600E-05
720000 0.000129280
725350 0.000160840
730000 0.000194560
734830 0.000229870
735560 0.000234490
740000 0.000253170
743750 0.000252000
748430 0.000230000
750000 0.000219420
750770 0.000213950
753500 0.000194010
755310 0.000181050
758180 0.000161990
760000 0.000151180
766760 0.000120740
770000 0.000111340
773240 0.000105090
774170 0.000103870
774320 0.000103700
780000 0.000102550
784560 0.000110960
785090 0.000112640
790000 0.000137330
791870 0.000151400
797570 0.000196500
797720 0.000197230
800000 0.000201440
803030 0.000186230
806500 0.000153130
806930 0.000148900
810000 0.000121590
812350 0.000105160
820000 7.41810E-05
820980 7.19720E-05
825510 6.52130E-05
828170 6.35320E-05
830000 6.33120E-05
832830 6.46270E-05
833850 6.56730E-05
840000 8.22830E-05
841600 9.15950E-05
844380 0.000118450
847300 0.000177610
848920 0.000242340
850000 0.000312250
852570 0.000698610
854710 0.00168740
854770 0.00172750
856860 0.00220900
858030 0.00146740
858420 0.00124390
859390 0.000830920
860000 0.000657680
860370 0.000576060
861340 0.000420630
863100 0.000264280
863540 0.000239480
864660 0.000191240
866800 0.000135200
870000 9.29230E-05
870860 8.58240E-05
870900 8.55230E-05
878170 5.47250E-05
879870 5.12810E-05
880000 5.10500E-05
890000 4.12620E-05
894300 3.99570E-05
894370 3.99450E-05
897180 3.96820E-05
900000 3.98170E-05
910000 4.33350E-05
910100 4.33960E-05
920000 5.26790E-05
923360 5.86920E-05
923510 5.90470E-05
926760 7.15120E-05
930000 0.000108610
930770 0.000113450
935450 6.71600E-05
940000 6.10750E-05
941300 6.02490E-05
943660 5.86970E-05
949880 5.33710E-05
950000 5.32476E-05
955540 4.75510E-05
958460 4.45620E-05
960000 4.30400E-05
961970 4.11700E-05
967040 3.68130E-05
970000 3.45910E-05
977180 3.01180E-05
980000 2.86720E-05
980280 2.85370E-05
990000 2.46270E-05
997660 2.23760E-05
997890 2.23175E-05
998100 2.22640E-05
1.00000E+06 2.17960E-05
1.01000E+06 4.54010E-05
1.01620E+06 4.14650E-05
1.01710E+06 4.10222E-05
1.01910E+06 4.05952E-05
1.02000E+06 4.04031E-05
1.03000E+06 3.82681E-05
1.03660E+06 3.95488E-05
1.04000E+06 4.09629E-05
1.04780E+06 4.62378E-05
1.05000E+06 4.82469E-05
1.05630E+06 5.52563E-05
1.05810E+06 5.75887E-05
1.06000E+06 6.02001E-05
1.07000E+06 7.60981E-05
1.07290E+06 8.12126E-05
1.07560E+06 8.60859E-05
1.08000E+06 9.41144E-05
1.08880E+06 0.000109592
1.09000E+06 0.000111558
1.09650E+06 0.000121245
1.09830E+06 0.000123586
1.10000E+06 0.000125644
1.10440E+06 0.000130230
1.10860E+06 0.000133561
1.10970E+06 0.000134262
1.11000E+06 0.000134441
1.11160E+06 0.000135305
1.11310E+06 0.000135982
1.11690E+06 0.000137135
1.11800E+06 0.000137325
1.12000E+06 0.000137518
1.12220E+06 0.000137511
1.13000E+06 0.000135974
1.13130E+06 0.000135539
1.13220E+06 0.000135215
1.13270E+06 0.000135028
1.14000E+06 0.000131934
1.14310E+06 0.000130554
1.15000E+06 0.000127799
1.15020E+06 0.000127731
1.15290E+06 0.000126895
1.16000E+06 0.000125664
1.16630E+06 0.000126063
1.16920E+06 0.000126802
1.17000E+06 0.000127073
1.17980E+06 0.000132913
1.18000E+06 0.000133083
1.18850E+06 0.000142364
1.19000E+06 0.000144427
1.19120E+06 0.000146172
1.20000E+06 0.000161547
1.20300E+06 0.000167821
1.20870E+06 0.000181127
1.21000E+06 0.000184403
1.21310E+06 0.000192547
1.21660E+06 0.000202260
1.22000E+06 0.000212144
1.22460E+06 0.000226057
1.22480E+06 0.000226672
1.23000E+06 0.000242842
1.23140E+06 0.000247217
1.23450E+06 0.000256856
1.23750E+06 0.000266039
1.23800E+06 0.000267549
1.23980E+06 0.000272920
1.24000E+06 0.000273510
1.24700E+06 0.000293015
1.25000E+06 0.000300504
1.25110E+06 0.000303090
1.25630E+06 0.000313980
1.26000E+06 0.000320228
1.26480E+06 0.000326247
1.26580E+06 0.000327187
1.27000E+06 0.000329900
1.27180E+06 0.000330442
1.27350E+06 0.000330607
1.27430E+06 0.000330568
1.27500E+06 0.000330473
1.27620E+06 0.000330177
1.27750E+06 0.000329668
1.27780E+06 0.000329522
1.27900E+06 0.000328839
1.27940E+06 0.000328574
1.28000E+06 0.000328143
1.28140E+06 0.000326980
1.28330E+06 0.000325052
1.28490E+06 0.000323124
1.28760E+06 0.000319258
1.29000E+06 0.000315203
1.29200E+06 0.000311401
1.29250E+06 0.000310393
1.29490E+06 0.000305249
1.29800E+06 0.000297902
1.30000E+06 0.000292777
1.30110E+06 0.000289840
1.30880E+06 0.000267312
1.31000E+06 0.000263547
1.31770E+06 0.000238338
1.31850E+06 0.000235649
1.32000E+06 0.000230586
1.32130E+06 0.000226185
1.32910E+06 0.000199828
1.33000E+06 0.000196824
1.33300E+06 0.000186915
1.34000E+06 0.000164654
1.34670E+06 0.000144858
1.34870E+06 0.000139287
1.35000E+06 0.000135756
1.36000E+06 0.000111078
1.36860E+06 9.34928E-05
1.37000E+06 9.09468E-05
1.37920E+06 7.63288E-05
1.38000E+06 7.52244E-05
1.39000E+06 6.34778E-05
1.39290E+06 6.07331E-05
1.40000E+06 5.51207E-05
1.40950E+06 4.97449E-05
1.41000E+06 4.95208E-05
1.41200E+06 4.86775E-05
1.41650E+06 4.70708E-05
1.41700E+06 4.69156E-05
1.41750E+06 4.67755E-05
1.42000E+06 4.60747E-05
1.43000E+06 4.42519E-05
1.43200E+06 4.40424E-05
1.43400E+06 4.38772E-05
1.43600E+06 4.37537E-05
1.43800E+06 4.36692E-05
1.44000E+06 4.36213E-05
1.44200E+06 4.36079E-05
1.44370E+06 4.36220E-05
1.44400E+06 4.36268E-05
1.44600E+06 4.36761E-05
1.44800E+06 4.37540E-05
1.45000E+06 4.38589E-05
1.45200E+06 4.39893E-05
1.45400E+06 4.41440E-05
1.45600E+06 4.43216E-05
1.45800E+06 4.45212E-05
1.46000E+06 4.47418E-05
1.46200E+06 4.49826E-05
1.46370E+06 4.52024E-05
1.46400E+06 4.52427E-05
1.46600E+06 4.55214E-05
1.46800E+06 4.58183E-05
1.47000E+06 4.61329E-05
1.47090E+06 4.62801E-05
1.47200E+06 4.64646E-05
1.47400E+06 4.68131E-05
1.47600E+06 4.71780E-05
1.47800E+06 4.75591E-05
1.48000E+06 4.79560E-05
1.48200E+06 4.83686E-05
1.48400E+06 4.87965E-05
1.48600E+06 4.92396E-05
1.48800E+06 4.96976E-05
1.48950E+06 5.00508E-05
1.49000E+06 5.01703E-05
1.49220E+06 5.07070E-05
1.49270E+06 5.08314E-05
1.49660E+06 5.18313E-05
1.50000E+06 5.27450E-05
1.50920E+06 5.53986E-05
1.52000E+06 5.87985E-05
1.52730E+06 6.12226E-05
1.53540E+06 6.39764E-05
1.53650E+06 6.43522E-05
1.54000E+06 6.55479E-05
1.54020E+06 6.56161E-05
1.55980E+06 7.20398E-05
1.56000E+06 7.21009E-05
1.56600E+06 7.38711E-05
1.58000E+06 7.74012E-05
1.58380E+06 7.81807E-05
1.59310E+06 7.97052E-05
1.60000E+06 8.04507E-05
1.60390E+06 8.07165E-05
1.62000E+06 8.05646E-05
1.62410E+06 8.02010E-05
1.62600E+06 7.99886E-05
1.63650E+06 7.83295E-05
1.63651E+06 7.83281E-05
1.63670E+06 7.82902E-05
1.64000E+06 7.76030E-05
1.64100E+06 7.73805E-05
1.64680E+06 7.59656E-05
1.65030E+06 7.50155E-05
1.65610E+06 7.32983E-05
1.66000E+06 7.20545E-05
1.66680E+06 6.97424E-05
1.67610E+06 6.63577E-05
1.68000E+06 6.48871E-05
1.68750E+06 6.20160E-05
1.68910E+06 6.14005E-05
1.69000E+06 6.10543E-05
1.70000E+06 5.72380E-05
1.70110E+06 5.68245E-05
1.72000E+06 5.01058E-05
1.73610E+06 4.52228E-05
1.74000E+06 4.41856E-05
1.75410E+06 4.09621E-05
1.76000E+06 3.98697E-05
1.78000E+06 3.73534E-05
1.78660E+06 3.69382E-05
1.80000E+06 3.67506E-05
1.82700E+06 3.91194E-05
1.83000E+06 3.97929E-05
1.85000E+06 4.42828E-05
1.85480E+06 4.53604E-05
1.87270E+06 5.11560E-05
1.88850E+06 5.70939E-05
1.90200E+06 6.24988E-05
1.92000E+06 6.96751E-05
1.92310E+06 7.09110E-05
1.92500E+06 7.16362E-05
1.92560E+06 7.18652E-05
1.93280E+06 7.45253E-05
1.95070E+06 8.03835E-05
1.97500E+06 8.58287E-05
1.97780E+06 8.64561E-05
1.98570E+06 8.74883E-05
1.99360E+06 8.81753E-05
2.00000E+06 8.84819E-05
2.00920E+06 8.84412E-05
2.03000E+06 8.83492E-05
2.03360E+06 8.83333E-05
2.03760E+06 8.83156E-05
2.07290E+06 8.81594E-05
2.08500E+06 8.81059E-05
2.11000E+06 8.79953E-05
2.11840E+06 8.79581E-05
2.15000E+06 8.78183E-05
2.16050E+06 8.77718E-05
2.18000E+06 8.76856E-05
2.18310E+06 8.76719E-05
2.19000E+06 8.76413E-05
2.20000E+06 8.75971E-05
2.21160E+06 8.75458E-05
2.22420E+06 8.74900E-05
2.23000E+06 8.74644E-05
2.23890E+06 8.74250E-05
2.24240E+06 8.74095E-05
2.24920E+06 8.73794E-05
2.26400E+06 8.73140E-05
2.26500E+06 8.73095E-05
2.27880E+06 8.72485E-05
2.29920E+06 8.71582E-05
2.30000E+06 8.71547E-05
2.31970E+06 8.70675E-05
2.32610E+06 8.70392E-05
2.33110E+06 8.70171E-05
2.34000E+06 8.69777E-05
2.34820E+06 8.69414E-05
2.37000E+06 8.68450E-05
2.38340E+06 8.67857E-05
2.40000E+06 8.67123E-05
2.41120E+06 8.66627E-05
2.42320E+06 8.66096E-05
2.46650E+06 8.64181E-05
2.48000E+06 8.63583E-05
2.49150E+06 8.63075E-05
2.50000E+06 8.62699E-05
2.52330E+06 8.61668E-05
2.53360E+06 8.61212E-05
2.54720E+06 8.60610E-05
2.55040E+06 8.60469E-05
2.58000E+06 8.59159E-05
2.60000E+06 8.58275E-05
2.60800E+06 8.57921E-05
2.64730E+06 8.56182E-05
2.66000E+06 8.55620E-05
2.68720E+06 8.54417E-05
2.70000E+06 8.53850E-05
2.77250E+06 8.50643E-05
2.78000E+06 8.50311E-05
2.80000E+06 8.49426E-05
2.80740E+06 8.49099E-05
2.83000E+06 8.48099E-05
2.84760E+06 8.47321E-05
2.92000E+06 8.44117E-05
2.92760E+06 8.43781E-05
2.97000E+06 8.41905E-05
2.99200E+06 8.40932E-05
2.99430E+06 8.40830E-05
3.00000E+06 8.40578E-05
3.00800E+06 8.40224E-05
3.02000E+06 8.39693E-05
3.04780E+06 8.38463E-05
3.06380E+06 8.37756E-05
3.08420E+06 8.36853E-05
3.09330E+06 8.36451E-05
3.10000E+06 8.36154E-05
3.12000E+06 8.35269E-05
3.12520E+06 8.35039E-05
3.17000E+06 8.33057E-05
3.17300E+06 8.32925E-05
3.20000E+06 8.31730E-05
3.20480E+06 8.31518E-05
3.20610E+06 8.31460E-05
3.23000E+06 8.30403E-05
3.23440E+06 8.30208E-05
3.25150E+06 8.29452E-05
3.27080E+06 8.28598E-05
3.28000E+06 8.28191E-05
3.30000E+06 8.27306E-05
3.33680E+06 8.25678E-05
3.34000E+06 8.25536E-05
3.35810E+06 8.24736E-05
3.35950E+06 8.24674E-05
3.38680E+06 8.23466E-05
3.40000E+06 8.22882E-05
3.41410E+06 8.22258E-05
3.42780E+06 8.21652E-05
3.44260E+06 8.20997E-05
3.46000E+06 8.20227E-05
3.46530E+06 8.19993E-05
3.48920E+06 8.18936E-05
3.50000E+06 8.18458E-05
3.50510E+06 8.18232E-05
3.52000E+06 8.17573E-05
3.52450E+06 8.17374E-05
3.54040E+06 8.16670E-05
3.58000E+06 8.14918E-05
3.58480E+06 8.14706E-05
3.60000E+06 8.14034E-05
3.60480E+06 8.13821E-05
3.61550E+06 8.13348E-05
3.64280E+06 8.12140E-05
3.66550E+06 8.11136E-05
3.70420E+06 8.09424E-05
3.74400E+06 8.07663E-05
3.77360E+06 8.06353E-05
3.80000E+06 8.05185E-05
3.80410E+06 8.05004E-05
3.83500E+06 8.03637E-05
3.85000E+06 8.02973E-05
3.86010E+06 8.02527E-05
3.89990E+06 8.00766E-05
3.91700E+06 8.00009E-05
3.95340E+06 7.98399E-05
3.99090E+06 7.96740E-05
4.00000E+06 7.96337E-05
4.01890E+06 7.95501E-05
4.02340E+06 7.95302E-05
4.08100E+06 7.92754E-05
4.11210E+06 7.91378E-05
4.11440E+06 7.91276E-05
4.11443E+06 7.91275E-05
4.13430E+06 7.90396E-05
4.15000E+06 7.89701E-05
4.19650E+06 7.87644E-05
4.20000E+06 7.87489E-05
4.21030E+06 7.87033E-05
4.21132E+06 7.86988E-05
4.21650E+06 7.86759E-05
4.22600E+06 7.86339E-05
4.23000E+06 7.86162E-05
4.24610E+06 7.85450E-05
4.25000E+06 7.85277E-05
4.25030E+06 7.85264E-05
4.25210E+06 7.85184E-05
4.26540E+06 7.84596E-05
4.29650E+06 7.83220E-05
4.30000E+06 7.83065E-05
4.31000E+06 7.82623E-05
4.34090E+06 7.81255E-05
4.35000E+06 7.80853E-05
4.40000E+06 7.78641E-05
4.40310E+06 7.78504E-05
4.43200E+06 7.77225E-05
4.50080E+06 7.74181E-05
4.55630E+06 7.71726E-05
4.60000E+06 7.69793E-05
4.61040E+06 7.69333E-05
4.61044E+06 7.69331E-05
4.66290E+06 7.67010E-05
4.68740E+06 7.65926E-05
4.70000E+06 7.65369E-05
4.74510E+06 7.63373E-05
4.79052E+06 7.61364E-05
4.79680E+06 7.61086E-05
4.79840E+06 7.61015E-05
4.79890E+06 7.60993E-05
4.80000E+06 7.60945E-05
4.80000E+06 7.60944E-05
4.85400E+06 7.58555E-05
4.89480E+06 7.56750E-05
4.90000E+06 7.56520E-05
4.90500E+06 7.56299E-05
4.93160E+06 7.55122E-05
4.93163E+06 7.55121E-05
4.94280E+06 7.54627E-05
4.97000E+06 7.53424E-05
4.97610E+06 7.53154E-05
5.00000E+06 7.52096E-05
5.00050E+06 7.52074E-05
5.03000E+06 7.50769E-05
5.04500E+06 7.50105E-05
5.10000E+06 7.47672E-05
5.12940E+06 7.46372E-05
5.13700E+06 7.46035E-05
5.17000E+06 7.44575E-05
5.20000E+06 7.43248E-05
5.21380E+06 7.42638E-05
5.25000E+06 7.41036E-05
5.30000E+06 7.38824E-05
5.30480E+06 7.38612E-05
5.37710E+06 7.35413E-05
5.40000E+06 7.34400E-05
5.42000E+06 7.33515E-05
5.44030E+06 7.32617E-05
5.50000E+06 7.29976E-05
5.56020E+06 7.27313E-05
5.59360E+06 7.25835E-05
5.60000E+06 7.25552E-05
5.62350E+06 7.24512E-05
5.65090E+06 7.23300E-05
5.69350E+06 7.21415E-05
5.70000E+06 7.21128E-05
5.71620E+06 7.20411E-05
5.71830E+06 7.20318E-05
5.73350E+06 7.19646E-05
5.75410E+06 7.18734E-05
5.79100E+06 7.17102E-05
5.80000E+06 7.16704E-05
5.81120E+06 7.16208E-05
5.83410E+06 7.15195E-05
5.83413E+06 7.15193E-05
5.86670E+06 7.13753E-05
5.87000E+06 7.13607E-05
5.90000E+06 7.12279E-05
5.90890E+06 7.11886E-05
5.91944E+06 7.11420E-05
5.92000E+06 7.11395E-05
5.92890E+06 7.11001E-05
5.93944E+06 7.10534E-05
5.96890E+06 7.09231E-05
5.98000E+06 7.08740E-05
6.00000E+06 7.07855E-05
6.02985E+06 7.06535E-05
6.05970E+06 7.05214E-05
6.07420E+06 7.04573E-05
6.09920E+06 7.03467E-05
6.10000E+06 7.03431E-05
6.13000E+06 7.02104E-05
6.16000E+06 7.00777E-05
6.19570E+06 6.99197E-05
6.20000E+06 6.99007E-05
6.22285E+06 6.97996E-05
6.25000E+06 6.96795E-05
6.25850E+06 6.96419E-05
6.27910E+06 6.95508E-05
6.30000E+06 6.94583E-05
6.32500E+06 6.93477E-05
6.35000E+06 6.92371E-05
6.37500E+06 6.91265E-05
6.40000E+06 6.90159E-05
6.42463E+06 6.89070E-05
6.44925E+06 6.87980E-05
6.47388E+06 6.86891E-05
6.49850E+06 6.85801E-05
6.50000E+06 6.85735E-05
6.55550E+06 6.83279E-05
6.59000E+06 6.81753E-05
6.61700E+06 6.80559E-05
6.65850E+06 6.78723E-05
6.70000E+06 6.76887E-05
6.72670E+06 6.75705E-05
6.75000E+06 6.74675E-05
6.80000E+06 6.72463E-05
6.81000E+06 6.72020E-05
6.85390E+06 6.70078E-05
6.91195E+06 6.67510E-05
6.97000E+06 6.64942E-05
6.99870E+06 6.63672E-05
7.00000E+06 6.63614E-05
7.10000E+06 6.59190E-05
7.11280E+06 6.58624E-05
7.18000E+06 6.55651E-05
7.20000E+06 6.54766E-05
7.22000E+06 6.53881E-05
7.25000E+06 6.52554E-05
7.26200E+06 6.52023E-05
7.28000E+06 6.51227E-05
7.35000E+06 6.48130E-05
7.35410E+06 6.47949E-05
7.40000E+06 6.45918E-05
7.50000E+06 6.41494E-05
7.52000E+06 6.40609E-05
7.57350E+06 6.38242E-05
7.60000E+06 6.37070E-05
7.67000E+06 6.33973E-05
7.67440E+06 6.33778E-05
7.70000E+06 6.32646E-05
7.75340E+06 6.30283E-05
7.83000E+06 6.26894E-05
7.84990E+06 6.26014E-05
7.90000E+06 6.23798E-05
7.95000E+06 6.21585E-05
7.95820E+06 6.21223E-05
8.00000E+06 6.19373E-05
8.13000E+06 6.13622E-05
8.14390E+06 6.13007E-05
8.30190E+06 6.06017E-05
8.33000E+06 6.04774E-05
8.40720E+06 6.01359E-05
8.41740E+06 6.00907E-05
8.50000E+06 5.97253E-05
8.63100E+06 5.91457E-05
8.66000E+06 5.90174E-05
8.70000E+06 5.88405E-05
8.70120E+06 5.88352E-05
8.72000E+06 5.87520E-05
8.86000E+06 5.81326E-05
9.00000E+06 5.75132E-05
9.00726E+06 5.74811E-05
9.01452E+06 5.74490E-05
9.02178E+06 5.74169E-05
9.02904E+06 5.73848E-05
9.03631E+06 5.73526E-05
9.04357E+06 5.73205E-05
9.05083E+06 5.72884E-05
9.05809E+06 5.72563E-05
9.06535E+06 5.72241E-05
9.07261E+06 5.71920E-05
9.07987E+06 5.71599E-05
9.08713E+06 5.71278E-05
9.09439E+06 5.70956E-05
9.10165E+06 5.70635E-05
9.10892E+06 5.70314E-05
9.11618E+06 5.69993E-05
9.12344E+06 5.69672E-05
9.13070E+06 5.69350E-05
9.13796E+06 5.69029E-05
9.14522E+06 5.68708E-05
9.15248E+06 5.68387E-05
9.15974E+06 5.68065E-05
9.16700E+06 5.67744E-05
9.17426E+06 5.67423E-05
9.18152E+06 5.67102E-05
9.18879E+06 5.66780E-05
9.19605E+06 5.66459E-05
9.20331E+06 5.66138E-05
9.21057E+06 5.65817E-05
9.21783E+06 5.65496E-05
9.22509E+06 5.65174E-05
9.23235E+06 5.64853E-05
9.23961E+06 5.64532E-05
9.24687E+06 5.64211E-05
9.25413E+06 5.63889E-05
9.26139E+06 5.63568E-05
9.26866E+06 5.63247E-05
9.27592E+06 5.62926E-05
9.28318E+06 5.62604E-05
9.29044E+06 5.62283E-05
9.29770E+06 5.61962E-05
9.30496E+06 5.61641E-05
9.31222E+06 5.61320E-05
9.31948E+06 5.60998E-05
9.32674E+06 5.60677E-05
9.33400E+06 5.60356E-05
9.34127E+06 5.60035E-05
9.34853E+06 5.59713E-05
9.35579E+06 5.59392E-05
9.36305E+06 5.59071E-05
9.37031E+06 5.58750E-05
9.37757E+06 5.58428E-05
9.38483E+06 5.58107E-05
9.39209E+06 5.57786E-05
9.39935E+06 5.57465E-05
9.40661E+06 5.57144E-05
9.41387E+06 5.56822E-05
9.42114E+06 5.56501E-05
9.42840E+06 5.56180E-05
9.43566E+06 5.55859E-05
9.44292E+06 5.55537E-05
9.45018E+06 5.55216E-05
9.45744E+06 5.54895E-05
9.46470E+06 5.54574E-05
9.47353E+06 5.54183E-05
9.48235E+06 5.53793E-05
9.49118E+06 5.53402E-05
9.50000E+06 5.53012E-05
9.52740E+06 5.51800E-05
9.55480E+06 5.50588E-05
9.58220E+06 5.49375E-05
9.60960E+06 5.48163E-05
9.63700E+06 5.46951E-05
9.66440E+06 5.45739E-05
9.69180E+06 5.44527E-05
9.71920E+06 5.43314E-05
9.73565E+06 5.42587E-05
9.75210E+06 5.41859E-05
9.76855E+06 5.41131E-05
9.78500E+06 5.40403E-05
9.80145E+06 5.39676E-05
9.81790E+06 5.38948E-05
9.83435E+06 5.38220E-05
9.85080E+06 5.37492E-05
9.86725E+06 5.36764E-05
9.88370E+06 5.36037E-05
9.90015E+06 5.35309E-05
9.91660E+06 5.34581E-05
9.93305E+06 5.33853E-05
9.94950E+06 5.33126E-05
9.95000E+06 5.33104E-05
9.96595E+06 5.32398E-05
9.98240E+06 5.31670E-05
1.00000E+07 5.30892E-05
1.00500E+07 5.28679E-05
1.01000E+07 5.26467E-05
1.01500E+07 5.24255E-05
1.02000E+07 5.22043E-05
1.02453E+07 5.20041E-05
1.02905E+07 5.18040E-05
1.03358E+07 5.16038E-05
1.03810E+07 5.14036E-05
1.04108E+07 5.12720E-05
1.04405E+07 5.11403E-05
1.04703E+07 5.10087E-05
1.05000E+07 5.08771E-05
1.05440E+07 5.06824E-05
1.05880E+07 5.04878E-05
1.06320E+07 5.02931E-05
1.06760E+07 5.00985E-05
1.07200E+07 4.99038E-05
1.07640E+07 4.97091E-05
1.08080E+07 4.95145E-05
1.08520E+07 4.93198E-05
1.09185E+07 4.90256E-05
1.09850E+07 4.87314E-05
1.10000E+07 4.86651E-05
1.10625E+07 4.83885E-05
1.11250E+07 4.81120E-05
1.11875E+07 4.78355E-05
1.12500E+07 4.75590E-05
1.13125E+07 4.72825E-05
1.13750E+07 4.70060E-05
1.14375E+07 4.67295E-05
1.15000E+07 4.64530E-05
1.15571E+07 4.62003E-05
1.16143E+07 4.59476E-05
1.16714E+07 4.56948E-05
1.17285E+07 4.54421E-05
1.17856E+07 4.51894E-05
1.18428E+07 4.49366E-05
1.18999E+07 4.46839E-05
1.19570E+07 4.44312E-05
1.20000E+07 4.42410E-05
1.21250E+07 4.36879E-05
1.22500E+07 4.31349E-05
1.23750E+07 4.25819E-05
1.25000E+07 4.20289E-05
1.26250E+07 4.14759E-05
1.27500E+07 4.09229E-05
1.28000E+07 4.07017E-05
1.28750E+07 4.03699E-05
1.30000E+07 3.98169E-05
1.32500E+07 3.87108E-05
1.35000E+07 3.76048E-05
1.36970E+07 3.67333E-05
1.40000E+07 3.53928E-05
1.41000E+07 3.49504E-05
1.45000E+07 3.31807E-05
1.48000E+07 3.18535E-05
1.50000E+07 3.09687E-05
1.55000E+07 2.87566E-05
1.56010E+07 2.83098E-05
1.59000E+07 2.69870E-05
1.60000E+07 2.65446E-05
1.65000E+07 2.43325E-05
1.70000E+07 2.21205E-05
1.72000E+07 2.12357E-05
1.74605E+07 2.00832E-05
1.79210E+07 1.80459E-05
1.80000E+07 1.76964E-05
1.90000E+07 1.32723E-05
2.00000E+07 8.84819E-06
